#  E (eV)   dos(E)     Int dos(E) EFermi =   -0.450 eV
 -21.000  0.0000E+00  0.0000E+00
 -20.990  0.0000E+00  0.0000E+00
 -20.980  0.0000E+00  0.0000E+00
 -20.970  0.0000E+00  0.0000E+00
 -20.960  0.0000E+00  0.0000E+00
 -20.950  0.0000E+00  0.0000E+00
 -20.940  0.0000E+00  0.0000E+00
 -20.930  0.0000E+00  0.0000E+00
 -20.920  0.0000E+00  0.0000E+00
 -20.910  0.0000E+00  0.0000E+00
 -20.900  0.0000E+00  0.0000E+00
 -20.890  0.0000E+00  0.0000E+00
 -20.880  0.0000E+00  0.0000E+00
 -20.870  0.0000E+00  0.0000E+00
 -20.860  0.0000E+00  0.0000E+00
 -20.850  0.0000E+00  0.0000E+00
 -20.840  0.0000E+00  0.0000E+00
 -20.830  0.0000E+00  0.0000E+00
 -20.820  0.0000E+00  0.0000E+00
 -20.810  0.0000E+00  0.0000E+00
 -20.800  0.0000E+00  0.0000E+00
 -20.790  0.0000E+00  0.0000E+00
 -20.780  0.0000E+00  0.0000E+00
 -20.770  0.0000E+00  0.0000E+00
 -20.760  0.0000E+00  0.0000E+00
 -20.750  0.0000E+00  0.0000E+00
 -20.740  0.0000E+00  0.0000E+00
 -20.730  0.0000E+00  0.0000E+00
 -20.720  0.0000E+00  0.0000E+00
 -20.710  0.0000E+00  0.0000E+00
 -20.700  0.0000E+00  0.0000E+00
 -20.690  0.0000E+00  0.0000E+00
 -20.680  0.0000E+00  0.0000E+00
 -20.670  0.0000E+00  0.0000E+00
 -20.660  0.0000E+00  0.0000E+00
 -20.650  0.0000E+00  0.0000E+00
 -20.640  0.0000E+00  0.0000E+00
 -20.630  0.0000E+00  0.0000E+00
 -20.620  0.0000E+00  0.0000E+00
 -20.610  0.0000E+00  0.0000E+00
 -20.600  0.0000E+00  0.0000E+00
 -20.590  0.0000E+00  0.0000E+00
 -20.580  0.0000E+00  0.0000E+00
 -20.570  0.0000E+00  0.0000E+00
 -20.560  0.0000E+00  0.0000E+00
 -20.550  0.0000E+00  0.0000E+00
 -20.540  0.0000E+00  0.0000E+00
 -20.530  0.0000E+00  0.0000E+00
 -20.520  0.0000E+00  0.0000E+00
 -20.510  0.0000E+00  0.0000E+00
 -20.500  0.0000E+00  0.0000E+00
 -20.490  0.0000E+00  0.0000E+00
 -20.480  0.0000E+00  0.0000E+00
 -20.470  0.0000E+00  0.0000E+00
 -20.460  0.0000E+00  0.0000E+00
 -20.450  0.0000E+00  0.0000E+00
 -20.440  0.0000E+00  0.0000E+00
 -20.430  0.0000E+00  0.0000E+00
 -20.420  0.0000E+00  0.0000E+00
 -20.410  0.0000E+00  0.0000E+00
 -20.400  0.0000E+00  0.0000E+00
 -20.390  0.0000E+00  0.0000E+00
 -20.380  0.0000E+00  0.0000E+00
 -20.370  0.0000E+00  0.0000E+00
 -20.360  0.0000E+00  0.0000E+00
 -20.350  0.0000E+00  0.0000E+00
 -20.340  0.0000E+00  0.0000E+00
 -20.330  0.0000E+00  0.0000E+00
 -20.320  0.0000E+00  0.0000E+00
 -20.310  0.0000E+00  0.0000E+00
 -20.300  0.0000E+00  0.0000E+00
 -20.290  0.0000E+00  0.0000E+00
 -20.280  0.0000E+00  0.0000E+00
 -20.270  0.0000E+00  0.0000E+00
 -20.260  0.0000E+00  0.0000E+00
 -20.250  0.0000E+00  0.0000E+00
 -20.240  0.0000E+00  0.0000E+00
 -20.230  0.0000E+00  0.0000E+00
 -20.220  0.0000E+00  0.0000E+00
 -20.210  0.0000E+00  0.0000E+00
 -20.200  0.0000E+00  0.0000E+00
 -20.190  0.0000E+00  0.0000E+00
 -20.180  0.0000E+00  0.0000E+00
 -20.170  0.0000E+00  0.0000E+00
 -20.160  0.0000E+00  0.0000E+00
 -20.150  0.0000E+00  0.0000E+00
 -20.140  0.0000E+00  0.0000E+00
 -20.130  0.0000E+00  0.0000E+00
 -20.120  0.0000E+00  0.0000E+00
 -20.110  0.0000E+00  0.0000E+00
 -20.100  0.0000E+00  0.0000E+00
 -20.090  0.0000E+00  0.0000E+00
 -20.080  0.0000E+00  0.0000E+00
 -20.070  0.0000E+00  0.0000E+00
 -20.060  0.0000E+00  0.0000E+00
 -20.050  0.0000E+00  0.0000E+00
 -20.040  0.0000E+00  0.0000E+00
 -20.030  0.0000E+00  0.0000E+00
 -20.020  0.0000E+00  0.0000E+00
 -20.010  0.0000E+00  0.0000E+00
 -20.000  0.0000E+00  0.0000E+00
 -19.990  0.0000E+00  0.0000E+00
 -19.980  0.0000E+00  0.0000E+00
 -19.970  0.1220E+00  0.6007E-03
 -19.960  0.2458E+00  0.2440E-02
 -19.950  0.3697E+00  0.5517E-02
 -19.940  0.4935E+00  0.9833E-02
 -19.930  0.2633E+00  0.1270E-01
 -19.920  0.2736E+00  0.1539E-01
 -19.910  0.2840E+00  0.1817E-01
 -19.900  0.2943E+00  0.2107E-01
 -19.890  0.3046E+00  0.2406E-01
 -19.880  0.3150E+00  0.2716E-01
 -19.870  0.3253E+00  0.3036E-01
 -19.860  0.3357E+00  0.3367E-01
 -19.850  0.3301E+00  0.3702E-01
 -19.840  0.3173E+00  0.4026E-01
 -19.830  0.3044E+00  0.4336E-01
 -19.820  0.2916E+00  0.4634E-01
 -19.810  0.2885E+00  0.4923E-01
 -19.800  0.2921E+00  0.5213E-01
 -19.790  0.2957E+00  0.5507E-01
 -19.780  0.2994E+00  0.5804E-01
 -19.770  0.3030E+00  0.6105E-01
 -19.760  0.3067E+00  0.6410E-01
 -19.750  0.3103E+00  0.6719E-01
 -19.740  0.3139E+00  0.7031E-01
 -19.730  0.3176E+00  0.7347E-01
 -19.720  0.3212E+00  0.7666E-01
 -19.710  0.3248E+00  0.7989E-01
 -19.700  0.3285E+00  0.8316E-01
 -19.690  0.3055E+00  0.8638E-01
 -19.680  0.3047E+00  0.8943E-01
 -19.670  0.3039E+00  0.9247E-01
 -19.660  0.3031E+00  0.9551E-01
 -19.650  0.3023E+00  0.9854E-01
 -19.640  0.3016E+00  0.1016E+00
 -19.630  0.3008E+00  0.1046E+00
 -19.620  0.3000E+00  0.1076E+00
 -19.610  0.2996E+00  0.1106E+00
 -19.600  0.3014E+00  0.1136E+00
 -19.590  0.3033E+00  0.1166E+00
 -19.580  0.3051E+00  0.1196E+00
 -19.570  0.3070E+00  0.1227E+00
 -19.560  0.3088E+00  0.1258E+00
 -19.550  0.3107E+00  0.1289E+00
 -19.540  0.3125E+00  0.1320E+00
 -19.530  0.3144E+00  0.1351E+00
 -19.520  0.3162E+00  0.1383E+00
 -19.510  0.3181E+00  0.1414E+00
 -19.500  0.3199E+00  0.1446E+00
 -19.490  0.3218E+00  0.1478E+00
 -19.480  0.3178E+00  0.1510E+00
 -19.470  0.3130E+00  0.1542E+00
 -19.460  0.3082E+00  0.1573E+00
 -19.450  0.3034E+00  0.1604E+00
 -19.440  0.3028E+00  0.1634E+00
 -19.430  0.3032E+00  0.1664E+00
 -19.420  0.3035E+00  0.1695E+00
 -19.410  0.3039E+00  0.1725E+00
 -19.400  0.3042E+00  0.1755E+00
 -19.390  0.3046E+00  0.1786E+00
 -19.380  0.3049E+00  0.1816E+00
 -19.370  0.3053E+00  0.1847E+00
 -19.360  0.3056E+00  0.1877E+00
 -19.350  0.3060E+00  0.1908E+00
 -19.340  0.3063E+00  0.1938E+00
 -19.330  0.3067E+00  0.1969E+00
 -19.320  0.3075E+00  0.2000E+00
 -19.310  0.3086E+00  0.2031E+00
 -19.300  0.3097E+00  0.2062E+00
 -19.290  0.3108E+00  0.2093E+00
 -19.280  0.3120E+00  0.2124E+00
 -19.270  0.3131E+00  0.2155E+00
 -19.260  0.3142E+00  0.2186E+00
 -19.250  0.3154E+00  0.2218E+00
 -19.240  0.3165E+00  0.2249E+00
 -19.230  0.3176E+00  0.2281E+00
 -19.220  0.3187E+00  0.2313E+00
 -19.210  0.3199E+00  0.2345E+00
 -19.200  0.3114E+00  0.2377E+00
 -19.190  0.3105E+00  0.2408E+00
 -19.180  0.3097E+00  0.2439E+00
 -19.170  0.3088E+00  0.2470E+00
 -19.160  0.3080E+00  0.2500E+00
 -19.150  0.3071E+00  0.2531E+00
 -19.140  0.3062E+00  0.2562E+00
 -19.130  0.3054E+00  0.2592E+00
 -19.120  0.3049E+00  0.2623E+00
 -19.110  0.3053E+00  0.2653E+00
 -19.100  0.3058E+00  0.2684E+00
 -19.090  0.3062E+00  0.2715E+00
 -19.080  0.3067E+00  0.2745E+00
 -19.070  0.3071E+00  0.2776E+00
 -19.060  0.3076E+00  0.2807E+00
 -19.050  0.3081E+00  0.2837E+00
 -19.040  0.3085E+00  0.2868E+00
 -19.030  0.3090E+00  0.2899E+00
 -19.020  0.3094E+00  0.2930E+00
 -19.010  0.3099E+00  0.2961E+00
 -19.000  0.3103E+00  0.2992E+00
 -18.990  0.3108E+00  0.3023E+00
 -18.980  0.3113E+00  0.3054E+00
 -18.970  0.3117E+00  0.3085E+00
 -18.960  0.3122E+00  0.3117E+00
 -18.950  0.3129E+00  0.3148E+00
 -18.940  0.3137E+00  0.3179E+00
 -18.930  0.3145E+00  0.3211E+00
 -18.920  0.3152E+00  0.3242E+00
 -18.910  0.3160E+00  0.3274E+00
 -18.900  0.3168E+00  0.3305E+00
 -18.890  0.3175E+00  0.3337E+00
 -18.880  0.3183E+00  0.3369E+00
 -18.870  0.3163E+00  0.3400E+00
 -18.860  0.3141E+00  0.3432E+00
 -18.850  0.3119E+00  0.3463E+00
 -18.840  0.3098E+00  0.3494E+00
 -18.830  0.3094E+00  0.3525E+00
 -18.820  0.3093E+00  0.3556E+00
 -18.810  0.3092E+00  0.3587E+00
 -18.800  0.3091E+00  0.3618E+00
 -18.790  0.3090E+00  0.3649E+00
 -18.780  0.3089E+00  0.3680E+00
 -18.770  0.3088E+00  0.3711E+00
 -18.760  0.3087E+00  0.3742E+00
 -18.750  0.3087E+00  0.3773E+00
 -18.740  0.3086E+00  0.3803E+00
 -18.730  0.3085E+00  0.3834E+00
 -18.720  0.3084E+00  0.3865E+00
 -18.710  0.3086E+00  0.3896E+00
 -18.700  0.3091E+00  0.3927E+00
 -18.690  0.3095E+00  0.3958E+00
 -18.680  0.3099E+00  0.3989E+00
 -18.670  0.3103E+00  0.4020E+00
 -18.660  0.3107E+00  0.4051E+00
 -18.650  0.3111E+00  0.4082E+00
 -18.640  0.3115E+00  0.4113E+00
 -18.630  0.3119E+00  0.4144E+00
 -18.620  0.3124E+00  0.4175E+00
 -18.610  0.3128E+00  0.4207E+00
 -18.600  0.3132E+00  0.4238E+00
 -18.590  0.3136E+00  0.4269E+00
 -18.580  0.3140E+00  0.4301E+00
 -18.570  0.3144E+00  0.4332E+00
 -18.560  0.3148E+00  0.4364E+00
 -18.550  0.3152E+00  0.4395E+00
 -18.540  0.3157E+00  0.4427E+00
 -18.530  0.3161E+00  0.4458E+00
 -18.520  0.3165E+00  0.4490E+00
 -18.510  0.3170E+00  0.4522E+00
 -18.500  0.3175E+00  0.4553E+00
 -18.490  0.3181E+00  0.4585E+00
 -18.480  0.3186E+00  0.4617E+00
 -18.470  0.3142E+00  0.4648E+00
 -18.460  0.3138E+00  0.4680E+00
 -18.450  0.3133E+00  0.4711E+00
 -18.440  0.3128E+00  0.4743E+00
 -18.430  0.3123E+00  0.4774E+00
 -18.420  0.3118E+00  0.4805E+00
 -18.410  0.3114E+00  0.4836E+00
 -18.400  0.3109E+00  0.4867E+00
 -18.390  0.3107E+00  0.4898E+00
 -18.380  0.3108E+00  0.4929E+00
 -18.370  0.3109E+00  0.4961E+00
 -18.360  0.3110E+00  0.4992E+00
 -18.350  0.3112E+00  0.5023E+00
 -18.340  0.3113E+00  0.5054E+00
 -18.330  0.3114E+00  0.5085E+00
 -18.320  0.3115E+00  0.5116E+00
 -18.310  0.3116E+00  0.5147E+00
 -18.300  0.3117E+00  0.5178E+00
 -18.290  0.3119E+00  0.5210E+00
 -18.280  0.3120E+00  0.5241E+00
 -18.270  0.3121E+00  0.5272E+00
 -18.260  0.3122E+00  0.5303E+00
 -18.250  0.3123E+00  0.5334E+00
 -18.240  0.3124E+00  0.5366E+00
 -18.230  0.3126E+00  0.5397E+00
 -18.220  0.3130E+00  0.5428E+00
 -18.210  0.3133E+00  0.5460E+00
 -18.200  0.3137E+00  0.5491E+00
 -18.190  0.3141E+00  0.5522E+00
 -18.180  0.3144E+00  0.5554E+00
 -18.170  0.3148E+00  0.5585E+00
 -18.160  0.3151E+00  0.5617E+00
 -18.150  0.3155E+00  0.5648E+00
 -18.140  0.3158E+00  0.5680E+00
 -18.130  0.3162E+00  0.5711E+00
 -18.120  0.3165E+00  0.5743E+00
 -18.110  0.3169E+00  0.5775E+00
 -18.100  0.3172E+00  0.5806E+00
 -18.090  0.3176E+00  0.5838E+00
 -18.080  0.3179E+00  0.5870E+00
 -18.070  0.3183E+00  0.5902E+00
 -18.060  0.3186E+00  0.5934E+00
 -18.050  0.3190E+00  0.5965E+00
 -18.040  0.3193E+00  0.5997E+00
 -18.030  0.3190E+00  0.6029E+00
 -18.020  0.3178E+00  0.6061E+00
 -18.010  0.3165E+00  0.6093E+00
 -18.000  0.3152E+00  0.6124E+00
 -17.990  0.3145E+00  0.6156E+00
 -17.980  0.3144E+00  0.6187E+00
 -17.970  0.3143E+00  0.6219E+00
 -17.960  0.3143E+00  0.6250E+00
 -17.950  0.3142E+00  0.6282E+00
 -17.940  0.3141E+00  0.6313E+00
 -17.930  0.3140E+00  0.6344E+00
 -17.920  0.3140E+00  0.6376E+00
 -17.910  0.3139E+00  0.6407E+00
 -17.900  0.3138E+00  0.6439E+00
 -17.890  0.3138E+00  0.6470E+00
 -17.880  0.3137E+00  0.6501E+00
 -17.870  0.3137E+00  0.6533E+00
 -17.860  0.3139E+00  0.6564E+00
 -17.850  0.3141E+00  0.6596E+00
 -17.840  0.3143E+00  0.6627E+00
 -17.830  0.3144E+00  0.6658E+00
 -17.820  0.3146E+00  0.6690E+00
 -17.810  0.3148E+00  0.6721E+00
 -17.800  0.3150E+00  0.6753E+00
 -17.790  0.3151E+00  0.6784E+00
 -17.780  0.3153E+00  0.6816E+00
 -17.770  0.3155E+00  0.6847E+00
 -17.760  0.3157E+00  0.6879E+00
 -17.750  0.3159E+00  0.6910E+00
 -17.740  0.3160E+00  0.6942E+00
 -17.730  0.3162E+00  0.6974E+00
 -17.720  0.3164E+00  0.7005E+00
 -17.710  0.3166E+00  0.7037E+00
 -17.700  0.3167E+00  0.7069E+00
 -17.690  0.3169E+00  0.7100E+00
 -17.680  0.3171E+00  0.7132E+00
 -17.670  0.3173E+00  0.7164E+00
 -17.660  0.3176E+00  0.7195E+00
 -17.650  0.3179E+00  0.7227E+00
 -17.640  0.3182E+00  0.7259E+00
 -17.630  0.3186E+00  0.7291E+00
 -17.620  0.3189E+00  0.7323E+00
 -17.610  0.3192E+00  0.7355E+00
 -17.600  0.3195E+00  0.7387E+00
 -17.590  0.3198E+00  0.7419E+00
 -17.580  0.3201E+00  0.7451E+00
 -17.570  0.3204E+00  0.7483E+00
 -17.560  0.3207E+00  0.7515E+00
 -17.550  0.3210E+00  0.7547E+00
 -17.540  0.3213E+00  0.7579E+00
 -17.530  0.3216E+00  0.7611E+00
 -17.520  0.3219E+00  0.7643E+00
 -17.510  0.3193E+00  0.7675E+00
 -17.500  0.3190E+00  0.7707E+00
 -17.490  0.3187E+00  0.7739E+00
 -17.480  0.3184E+00  0.7771E+00
 -17.470  0.3181E+00  0.7803E+00
 -17.460  0.3178E+00  0.7834E+00
 -17.450  0.3175E+00  0.7866E+00
 -17.440  0.3172E+00  0.7898E+00
 -17.430  0.3172E+00  0.7930E+00
 -17.420  0.3172E+00  0.7961E+00
 -17.410  0.3172E+00  0.7993E+00
 -17.400  0.3173E+00  0.8025E+00
 -17.390  0.3173E+00  0.8057E+00
 -17.380  0.3174E+00  0.8088E+00
 -17.370  0.3175E+00  0.8120E+00
 -17.360  0.3175E+00  0.8152E+00
 -17.350  0.3176E+00  0.8184E+00
 -17.340  0.3177E+00  0.8215E+00
 -17.330  0.3178E+00  0.8247E+00
 -17.320  0.3178E+00  0.8279E+00
 -17.310  0.3179E+00  0.8311E+00
 -17.300  0.3180E+00  0.8342E+00
 -17.290  0.3181E+00  0.8374E+00
 -17.280  0.3181E+00  0.8406E+00
 -17.270  0.3183E+00  0.8438E+00
 -17.260  0.3185E+00  0.8470E+00
 -17.250  0.3187E+00  0.8502E+00
 -17.240  0.3189E+00  0.8534E+00
 -17.230  0.3191E+00  0.8565E+00
 -17.220  0.3193E+00  0.8597E+00
 -17.210  0.3195E+00  0.8629E+00
 -17.200  0.3197E+00  0.8661E+00
 -17.190  0.3199E+00  0.8693E+00
 -17.180  0.3201E+00  0.8725E+00
 -17.170  0.3203E+00  0.8757E+00
 -17.160  0.3205E+00  0.8789E+00
 -17.150  0.3207E+00  0.8821E+00
 -17.140  0.3209E+00  0.8853E+00
 -17.130  0.3211E+00  0.8886E+00
 -17.120  0.3213E+00  0.8918E+00
 -17.110  0.3215E+00  0.8950E+00
 -17.100  0.3217E+00  0.8982E+00
 -17.090  0.3219E+00  0.9014E+00
 -17.080  0.3221E+00  0.9046E+00
 -17.070  0.3223E+00  0.9079E+00
 -17.060  0.3225E+00  0.9111E+00
 -17.050  0.3227E+00  0.9143E+00
 -17.040  0.3229E+00  0.9175E+00
 -17.030  0.3232E+00  0.9208E+00
 -17.020  0.3234E+00  0.9240E+00
 -17.010  0.3237E+00  0.9272E+00
 -17.000  0.3240E+00  0.9305E+00
 -16.990  0.3243E+00  0.9337E+00
 -16.980  0.3245E+00  0.9370E+00
 -16.970  0.3248E+00  0.9402E+00
 -16.960  0.3245E+00  0.9434E+00
 -16.950  0.3239E+00  0.9467E+00
 -16.940  0.3232E+00  0.9499E+00
 -16.930  0.3225E+00  0.9532E+00
 -16.920  0.3223E+00  0.9564E+00
 -16.910  0.3223E+00  0.9596E+00
 -16.900  0.3223E+00  0.9628E+00
 -16.890  0.3222E+00  0.9660E+00
 -16.880  0.3222E+00  0.9693E+00
 -16.870  0.3222E+00  0.9725E+00
 -16.860  0.3222E+00  0.9757E+00
 -16.850  0.3221E+00  0.9789E+00
 -16.840  0.3221E+00  0.9822E+00
 -16.830  0.3221E+00  0.9854E+00
 -16.820  0.3221E+00  0.9886E+00
 -16.810  0.3221E+00  0.9918E+00
 -16.800  0.3222E+00  0.9950E+00
 -16.790  0.3223E+00  0.9983E+00
 -16.780  0.3224E+00  0.1001E+01
 -16.770  0.3225E+00  0.1005E+01
 -16.760  0.3226E+00  0.1008E+01
 -16.750  0.3227E+00  0.1011E+01
 -16.740  0.3229E+00  0.1014E+01
 -16.730  0.3230E+00  0.1018E+01
 -16.720  0.3231E+00  0.1021E+01
 -16.710  0.3233E+00  0.1024E+01
 -16.700  0.3234E+00  0.1027E+01
 -16.690  0.3236E+00  0.1031E+01
 -16.680  0.3237E+00  0.1034E+01
 -16.670  0.3239E+00  0.1037E+01
 -16.660  0.3240E+00  0.1040E+01
 -16.650  0.3242E+00  0.1044E+01
 -16.640  0.3243E+00  0.1047E+01
 -16.630  0.3245E+00  0.1050E+01
 -16.620  0.3246E+00  0.1053E+01
 -16.610  0.3248E+00  0.1056E+01
 -16.600  0.3250E+00  0.1060E+01
 -16.590  0.3252E+00  0.1063E+01
 -16.580  0.3254E+00  0.1066E+01
 -16.570  0.3257E+00  0.1069E+01
 -16.560  0.3259E+00  0.1073E+01
 -16.550  0.3261E+00  0.1076E+01
 -16.540  0.3263E+00  0.1079E+01
 -16.530  0.3265E+00  0.1083E+01
 -16.520  0.3267E+00  0.1086E+01
 -16.510  0.3270E+00  0.1089E+01
 -16.500  0.3272E+00  0.1092E+01
 -16.490  0.3274E+00  0.1096E+01
 -16.480  0.3276E+00  0.1099E+01
 -16.470  0.3278E+00  0.1102E+01
 -16.460  0.3281E+00  0.1105E+01
 -16.450  0.3283E+00  0.1109E+01
 -16.440  0.3285E+00  0.1112E+01
 -16.430  0.3287E+00  0.1115E+01
 -16.420  0.3289E+00  0.1119E+01
 -16.410  0.3291E+00  0.1122E+01
 -16.400  0.3294E+00  0.1125E+01
 -16.390  0.3296E+00  0.1128E+01
 -16.380  0.3298E+00  0.1132E+01
 -16.370  0.3300E+00  0.1135E+01
 -16.360  0.3302E+00  0.1138E+01
 -16.350  0.3305E+00  0.1142E+01
 -16.340  0.3292E+00  0.1145E+01
 -16.330  0.3292E+00  0.1148E+01
 -16.320  0.3291E+00  0.1152E+01
 -16.310  0.3290E+00  0.1155E+01
 -16.300  0.3290E+00  0.1158E+01
 -16.290  0.3289E+00  0.1161E+01
 -16.280  0.3289E+00  0.1165E+01
 -16.270  0.3288E+00  0.1168E+01
 -16.260  0.3289E+00  0.1171E+01
 -16.250  0.3290E+00  0.1175E+01
 -16.240  0.3292E+00  0.1178E+01
 -16.230  0.3293E+00  0.1181E+01
 -16.220  0.3294E+00  0.1184E+01
 -16.210  0.3296E+00  0.1188E+01
 -16.200  0.3297E+00  0.1191E+01
 -16.190  0.3298E+00  0.1194E+01
 -16.180  0.3300E+00  0.1198E+01
 -16.170  0.3301E+00  0.1201E+01
 -16.160  0.3302E+00  0.1204E+01
 -16.150  0.3304E+00  0.1208E+01
 -16.140  0.3305E+00  0.1211E+01
 -16.130  0.3306E+00  0.1214E+01
 -16.120  0.3308E+00  0.1217E+01
 -16.110  0.3309E+00  0.1221E+01
 -16.100  0.3312E+00  0.1224E+01
 -16.090  0.3314E+00  0.1227E+01
 -16.080  0.3316E+00  0.1231E+01
 -16.070  0.3318E+00  0.1234E+01
 -16.060  0.3320E+00  0.1237E+01
 -16.050  0.3322E+00  0.1241E+01
 -16.040  0.3324E+00  0.1244E+01
 -16.030  0.3326E+00  0.1247E+01
 -16.020  0.3329E+00  0.1251E+01
 -16.010  0.3331E+00  0.1254E+01
 -16.000  0.3333E+00  0.1257E+01
 -15.990  0.3335E+00  0.1261E+01
 -15.980  0.3338E+00  0.1264E+01
 -15.970  0.3340E+00  0.1267E+01
 -15.960  0.3343E+00  0.1271E+01
 -15.950  0.3345E+00  0.1274E+01
 -15.940  0.3348E+00  0.1277E+01
 -15.930  0.3350E+00  0.1281E+01
 -15.920  0.3353E+00  0.1284E+01
 -15.910  0.3355E+00  0.1287E+01
 -15.900  0.3358E+00  0.1291E+01
 -15.890  0.3360E+00  0.1294E+01
 -15.880  0.3363E+00  0.1297E+01
 -15.870  0.3367E+00  0.1301E+01
 -15.860  0.3370E+00  0.1304E+01
 -15.850  0.3373E+00  0.1308E+01
 -15.840  0.3376E+00  0.1311E+01
 -15.830  0.3380E+00  0.1314E+01
 -15.820  0.3383E+00  0.1318E+01
 -15.810  0.3386E+00  0.1321E+01
 -15.800  0.3389E+00  0.1324E+01
 -15.790  0.3393E+00  0.1328E+01
 -15.780  0.3396E+00  0.1331E+01
 -15.770  0.3399E+00  0.1335E+01
 -15.760  0.3402E+00  0.1338E+01
 -15.750  0.3406E+00  0.1341E+01
 -15.740  0.3409E+00  0.1345E+01
 -15.730  0.3412E+00  0.1348E+01
 -15.720  0.3415E+00  0.1352E+01
 -15.710  0.3419E+00  0.1355E+01
 -15.700  0.3422E+00  0.1359E+01
 -15.690  0.3422E+00  0.1362E+01
 -15.680  0.3421E+00  0.1365E+01
 -15.670  0.3420E+00  0.1369E+01
 -15.660  0.3420E+00  0.1372E+01
 -15.650  0.3422E+00  0.1376E+01
 -15.640  0.3424E+00  0.1379E+01
 -15.630  0.3426E+00  0.1382E+01
 -15.620  0.3429E+00  0.1386E+01
 -15.610  0.3431E+00  0.1389E+01
 -15.600  0.3433E+00  0.1393E+01
 -15.590  0.3436E+00  0.1396E+01
 -15.580  0.3440E+00  0.1400E+01
 -15.570  0.3444E+00  0.1403E+01
 -15.560  0.3448E+00  0.1407E+01
 -15.550  0.3453E+00  0.1410E+01
 -15.540  0.3458E+00  0.1413E+01
 -15.530  0.3463E+00  0.1417E+01
 -15.520  0.3468E+00  0.1420E+01
 -15.510  0.3474E+00  0.1424E+01
 -15.500  0.3479E+00  0.1427E+01
 -15.490  0.3484E+00  0.1431E+01
 -15.480  0.3489E+00  0.1434E+01
 -15.470  0.3495E+00  0.1438E+01
 -15.460  0.3500E+00  0.1441E+01
 -15.450  0.3505E+00  0.1445E+01
 -15.440  0.3510E+00  0.1448E+01
 -15.430  0.3516E+00  0.1452E+01
 -15.420  0.3521E+00  0.1455E+01
 -15.410  0.3526E+00  0.1459E+01
 -15.400  0.3531E+00  0.1462E+01
 -15.390  0.3537E+00  0.1466E+01
 -15.380  0.3542E+00  0.1469E+01
 -15.370  0.3547E+00  0.1473E+01
 -15.360  0.3555E+00  0.1477E+01
 -15.350  0.3562E+00  0.1480E+01
 -15.340  0.3570E+00  0.1484E+01
 -15.330  0.3577E+00  0.1487E+01
 -15.320  0.3584E+00  0.1491E+01
 -15.310  0.3592E+00  0.1494E+01
 -15.300  0.3599E+00  0.1498E+01
 -15.290  0.3607E+00  0.1502E+01
 -15.280  0.3614E+00  0.1505E+01
 -15.270  0.3621E+00  0.1509E+01
 -15.260  0.3629E+00  0.1512E+01
 -15.250  0.3636E+00  0.1516E+01
 -15.240  0.3646E+00  0.1520E+01
 -15.230  0.3659E+00  0.1523E+01
 -15.220  0.3672E+00  0.1527E+01
 -15.210  0.3685E+00  0.1531E+01
 -15.200  0.3699E+00  0.1534E+01
 -15.190  0.3712E+00  0.1538E+01
 -15.180  0.3725E+00  0.1542E+01
 -15.170  0.3738E+00  0.1546E+01
 -15.160  0.3751E+00  0.1549E+01
 -15.150  0.3764E+00  0.1553E+01
 -15.140  0.3777E+00  0.1557E+01
 -15.130  0.3797E+00  0.1561E+01
 -15.120  0.3822E+00  0.1564E+01
 -15.110  0.3848E+00  0.1568E+01
 -15.100  0.3874E+00  0.1572E+01
 -15.090  0.3900E+00  0.1576E+01
 -15.080  0.3926E+00  0.1580E+01
 -15.070  0.3951E+00  0.1584E+01
 -15.060  0.3977E+00  0.1588E+01
 -15.050  0.4003E+00  0.1592E+01
 -15.040  0.4029E+00  0.1596E+01
 -15.030  0.4054E+00  0.1600E+01
 -15.020  0.4080E+00  0.1604E+01
 -15.010  0.4106E+00  0.1608E+01
 -15.000  0.4132E+00  0.1612E+01
 -14.990  0.4158E+00  0.1616E+01
 -14.980  0.4185E+00  0.1620E+01
 -14.970  0.4212E+00  0.1625E+01
 -14.960  0.4238E+00  0.1629E+01
 -14.950  0.4265E+00  0.1633E+01
 -14.940  0.4292E+00  0.1637E+01
 -14.930  0.4319E+00  0.1642E+01
 -14.920  0.4349E+00  0.1646E+01
 -14.910  0.4379E+00  0.1650E+01
 -14.900  0.4409E+00  0.1655E+01
 -14.890  0.4439E+00  0.1659E+01
 -14.880  0.4469E+00  0.1664E+01
 -14.870  0.6609E+00  0.1670E+01
 -14.860  0.6388E+00  0.1677E+01
 -14.850  0.6166E+00  0.1683E+01
 -14.840  0.5945E+00  0.1689E+01
 -14.830  0.5723E+00  0.1695E+01
 -14.820  0.5501E+00  0.1701E+01
 -14.810  0.5280E+00  0.1706E+01
 -14.800  0.5075E+00  0.1711E+01
 -14.790  0.4872E+00  0.1716E+01
 -14.780  0.4668E+00  0.1721E+01
 -14.770  0.4465E+00  0.1725E+01
 -14.760  0.4262E+00  0.1730E+01
 -14.750  0.4059E+00  0.1734E+01
 -14.740  0.3856E+00  0.1738E+01
 -14.730  0.3816E+00  0.1742E+01
 -14.720  0.3780E+00  0.1746E+01
 -14.710  0.3743E+00  0.1749E+01
 -14.700  0.3706E+00  0.1753E+01
 -14.690  0.3669E+00  0.1757E+01
 -14.680  0.3632E+00  0.1760E+01
 -14.670  0.3595E+00  0.1764E+01
 -14.660  0.9430E+00  0.1771E+01
 -14.650  0.6932E+00  0.1779E+01
 -14.640  0.4435E+00  0.1785E+01
 -14.630  0.3014E+00  0.1789E+01
 -14.620  0.2981E+00  0.1792E+01
 -14.610  0.2948E+00  0.1795E+01
 -14.600  0.2916E+00  0.1797E+01
 -14.590  0.2883E+00  0.1800E+01
 -14.580  0.2850E+00  0.1803E+01
 -14.570  0.2817E+00  0.1806E+01
 -14.560  0.2784E+00  0.1809E+01
 -14.550  0.2751E+00  0.1812E+01
 -14.540  0.2718E+00  0.1814E+01
 -14.530  0.2685E+00  0.1817E+01
 -14.520  0.2652E+00  0.1820E+01
 -14.510  0.2619E+00  0.1822E+01
 -14.500  0.2586E+00  0.1825E+01
 -14.490  0.2553E+00  0.1828E+01
 -14.480  0.2520E+00  0.1830E+01
 -14.470  0.2487E+00  0.1833E+01
 -14.460  0.2454E+00  0.1835E+01
 -14.450  0.2421E+00  0.1837E+01
 -14.440  0.2388E+00  0.1840E+01
 -14.430  0.2355E+00  0.1842E+01
 -14.420  0.2322E+00  0.1845E+01
 -14.410  0.2289E+00  0.1847E+01
 -14.400  0.2256E+00  0.1849E+01
 -14.390  0.2223E+00  0.1851E+01
 -14.380  0.2190E+00  0.1854E+01
 -14.370  0.2157E+00  0.1856E+01
 -14.360  0.2124E+00  0.1858E+01
 -14.350  0.2091E+00  0.1860E+01
 -14.340  0.2058E+00  0.1862E+01
 -14.330  0.2025E+00  0.1864E+01
 -14.320  0.1992E+00  0.1866E+01
 -14.310  0.2194E+00  0.1868E+01
 -14.300  0.2446E+00  0.1871E+01
 -14.290  0.2712E+00  0.1873E+01
 -14.280  0.2985E+00  0.1876E+01
 -14.270  0.3296E+00  0.1879E+01
 -14.260  0.3624E+00  0.1883E+01
 -14.250  0.3953E+00  0.1886E+01
 -14.240  0.1980E+00  0.1890E+01
 -14.230  0.1959E+00  0.1892E+01
 -14.220  0.1937E+00  0.1894E+01
 -14.210  0.1916E+00  0.1896E+01
 -14.200  0.1895E+00  0.1898E+01
 -14.190  0.1874E+00  0.1900E+01
 -14.180  0.1853E+00  0.1902E+01
 -14.170  0.1831E+00  0.1903E+01
 -14.160  0.1810E+00  0.1905E+01
 -14.150  0.1789E+00  0.1907E+01
 -14.140  0.1768E+00  0.1909E+01
 -14.130  0.1747E+00  0.1911E+01
 -14.120  0.1725E+00  0.1912E+01
 -14.110  0.1704E+00  0.1914E+01
 -14.100  0.1683E+00  0.1916E+01
 -14.090  0.1662E+00  0.1917E+01
 -14.080  0.1641E+00  0.1919E+01
 -14.070  0.1619E+00  0.1921E+01
 -14.060  0.1598E+00  0.1922E+01
 -14.050  0.1577E+00  0.1924E+01
 -14.040  0.1556E+00  0.1925E+01
 -14.030  0.1534E+00  0.1927E+01
 -14.020  0.1513E+00  0.1929E+01
 -14.010  0.1492E+00  0.1930E+01
 -14.000  0.1471E+00  0.1932E+01
 -13.990  0.1450E+00  0.1933E+01
 -13.980  0.1428E+00  0.1934E+01
 -13.970  0.1407E+00  0.1936E+01
 -13.960  0.1386E+00  0.1937E+01
 -13.950  0.1365E+00  0.1939E+01
 -13.940  0.1344E+00  0.1940E+01
 -13.930  0.1322E+00  0.1941E+01
 -13.920  0.1301E+00  0.1943E+01
 -13.910  0.1280E+00  0.1944E+01
 -13.900  0.1259E+00  0.1945E+01
 -13.890  0.1238E+00  0.1946E+01
 -13.880  0.1216E+00  0.1948E+01
 -13.870  0.1195E+00  0.1949E+01
 -13.860  0.1174E+00  0.1950E+01
 -13.850  0.1153E+00  0.1951E+01
 -13.840  0.1132E+00  0.1952E+01
 -13.830  0.1110E+00  0.1953E+01
 -13.820  0.1089E+00  0.1955E+01
 -13.810  0.1068E+00  0.1956E+01
 -13.800  0.1047E+00  0.1957E+01
 -13.790  0.1039E+00  0.1958E+01
 -13.780  0.1070E+00  0.1959E+01
 -13.770  0.1101E+00  0.1960E+01
 -13.760  0.1131E+00  0.1961E+01
 -13.750  0.1162E+00  0.1962E+01
 -13.740  0.1193E+00  0.1963E+01
 -13.730  0.1224E+00  0.1965E+01
 -13.720  0.1255E+00  0.1966E+01
 -13.710  0.1286E+00  0.1967E+01
 -13.700  0.1318E+00  0.1968E+01
 -13.690  0.1433E+00  0.1970E+01
 -13.680  0.1548E+00  0.1971E+01
 -13.670  0.1663E+00  0.1973E+01
 -13.660  0.1778E+00  0.1975E+01
 -13.650  0.1893E+00  0.1976E+01
 -13.640  0.2008E+00  0.1978E+01
 -13.630  0.2123E+00  0.1980E+01
 -13.620  0.1407E+00  0.1982E+01
 -13.610  0.1478E+00  0.1984E+01
 -13.600  0.1549E+00  0.1985E+01
 -13.590  0.1827E+00  0.1987E+01
 -13.580  0.2212E+00  0.1989E+01
 -13.570  0.2597E+00  0.1991E+01
 -13.560  0.2981E+00  0.1994E+01
 -13.550  0.3366E+00  0.1997E+01
 -13.540  0.3751E+00  0.2001E+01
 -13.530  0.4136E+00  0.2005E+01
 -13.520  0.4521E+00  0.2009E+01
 -13.510  0.4906E+00  0.2014E+01
 -13.500  0.5290E+00  0.2019E+01
 -13.490  0.2542E+00  0.2023E+01
 -13.480  0.2564E+00  0.2026E+01
 -13.470  0.2586E+00  0.2028E+01
 -13.460  0.2608E+00  0.2031E+01
 -13.450  0.2631E+00  0.2034E+01
 -13.440  0.2653E+00  0.2036E+01
 -13.430  0.2675E+00  0.2039E+01
 -13.420  0.2697E+00  0.2042E+01
 -13.410  0.2719E+00  0.2044E+01
 -13.400  0.2741E+00  0.2047E+01
 -13.390  0.2763E+00  0.2050E+01
 -13.380  0.2785E+00  0.2053E+01
 -13.370  0.2807E+00  0.2055E+01
 -13.360  0.2830E+00  0.2058E+01
 -13.350  0.2852E+00  0.2061E+01
 -13.340  0.2874E+00  0.2064E+01
 -13.330  0.2896E+00  0.2067E+01
 -13.320  0.2918E+00  0.2070E+01
 -13.310  0.2940E+00  0.2073E+01
 -13.300  0.7982E+00  0.2076E+01
 -13.290  0.3089E+00  0.2089E+01
 -13.280  0.3086E+00  0.2093E+01
 -13.270  0.3083E+00  0.2096E+01
 -13.260  0.3080E+00  0.2099E+01
 -13.250  0.3078E+00  0.2102E+01
 -13.240  0.3075E+00  0.2105E+01
 -13.230  0.3072E+00  0.2108E+01
 -13.220  0.3069E+00  0.2111E+01
 -13.210  0.3067E+00  0.2114E+01
 -13.200  0.3064E+00  0.2117E+01
 -13.190  0.3061E+00  0.2120E+01
 -13.180  0.3058E+00  0.2123E+01
 -13.170  0.3056E+00  0.2126E+01
 -13.160  0.3053E+00  0.2129E+01
 -13.150  0.3050E+00  0.2132E+01
 -13.140  0.3047E+00  0.2135E+01
 -13.130  0.3047E+00  0.2138E+01
 -13.120  0.3050E+00  0.2142E+01
 -13.110  0.3053E+00  0.2145E+01
 -13.100  0.3055E+00  0.2148E+01
 -13.090  0.3058E+00  0.2151E+01
 -13.080  0.3061E+00  0.2154E+01
 -13.070  0.3063E+00  0.2157E+01
 -13.060  0.3066E+00  0.2160E+01
 -13.050  0.3109E+00  0.2163E+01
 -13.040  0.3153E+00  0.2166E+01
 -13.030  0.3205E+00  0.2169E+01
 -13.020  0.3261E+00  0.2173E+01
 -13.010  0.3317E+00  0.2176E+01
 -13.000  0.3373E+00  0.2179E+01
 -12.990  0.3429E+00  0.2183E+01
 -12.980  0.3485E+00  0.2186E+01
 -12.970  0.3542E+00  0.2190E+01
 -12.960  0.3598E+00  0.2193E+01
 -12.950  0.3654E+00  0.2197E+01
 -12.940  0.3710E+00  0.2200E+01
 -12.930  0.1175E+01  0.2208E+01
 -12.920  0.6765E+00  0.2217E+01
 -12.910  0.4045E+00  0.2222E+01
 -12.900  0.4117E+00  0.2226E+01
 -12.890  0.4189E+00  0.2230E+01
 -12.880  0.4261E+00  0.2234E+01
 -12.870  0.4333E+00  0.2239E+01
 -12.860  0.4405E+00  0.2243E+01
 -12.850  0.4478E+00  0.2247E+01
 -12.840  0.4550E+00  0.2252E+01
 -12.830  0.4622E+00  0.2257E+01
 -12.820  0.4694E+00  0.2261E+01
 -12.810  0.4766E+00  0.2266E+01
 -12.800  0.4838E+00  0.2271E+01
 -12.790  0.4910E+00  0.2276E+01
 -12.780  0.4983E+00  0.2281E+01
 -12.770  0.5055E+00  0.2286E+01
 -12.760  0.5127E+00  0.2291E+01
 -12.750  0.5214E+00  0.2296E+01
 -12.740  0.5301E+00  0.2301E+01
 -12.730  0.5388E+00  0.2306E+01
 -12.720  0.5476E+00  0.2312E+01
 -12.710  0.5563E+00  0.2317E+01
 -12.700  0.5651E+00  0.2323E+01
 -12.690  0.5738E+00  0.2329E+01
 -12.680  0.5825E+00  0.2334E+01
 -12.670  0.4284E+00  0.2340E+01
 -12.660  0.4263E+00  0.2344E+01
 -12.650  0.4242E+00  0.2348E+01
 -12.640  0.4222E+00  0.2352E+01
 -12.630  0.4202E+00  0.2357E+01
 -12.620  0.4181E+00  0.2361E+01
 -12.610  0.4161E+00  0.2365E+01
 -12.600  0.4141E+00  0.2369E+01
 -12.590  0.4120E+00  0.2373E+01
 -12.580  0.4100E+00  0.2377E+01
 -12.570  0.4080E+00  0.2381E+01
 -12.560  0.4060E+00  0.2385E+01
 -12.550  0.4039E+00  0.2389E+01
 -12.540  0.4019E+00  0.2393E+01
 -12.530  0.3999E+00  0.2398E+01
 -12.520  0.3978E+00  0.2401E+01
 -12.510  0.3958E+00  0.2405E+01
 -12.500  0.3938E+00  0.2409E+01
 -12.490  0.3918E+00  0.2413E+01
 -12.480  0.3897E+00  0.2417E+01
 -12.470  0.3878E+00  0.2421E+01
 -12.460  0.3859E+00  0.2425E+01
 -12.450  0.3841E+00  0.2429E+01
 -12.440  0.3822E+00  0.2433E+01
 -12.430  0.3803E+00  0.2436E+01
 -12.420  0.3784E+00  0.2440E+01
 -12.410  0.3767E+00  0.2444E+01
 -12.400  0.3751E+00  0.2448E+01
 -12.390  0.3735E+00  0.2452E+01
 -12.380  0.3719E+00  0.2455E+01
 -12.370  0.3702E+00  0.2459E+01
 -12.360  0.3686E+00  0.2463E+01
 -12.350  0.3670E+00  0.2466E+01
 -12.340  0.3654E+00  0.2470E+01
 -12.330  0.3638E+00  0.2474E+01
 -12.320  0.3622E+00  0.2477E+01
 -12.310  0.3606E+00  0.2481E+01
 -12.300  0.3589E+00  0.2485E+01
 -12.290  0.3573E+00  0.2488E+01
 -12.280  0.3557E+00  0.2492E+01
 -12.270  0.3541E+00  0.2495E+01
 -12.260  0.3525E+00  0.2499E+01
 -12.250  0.3509E+00  0.2502E+01
 -12.240  0.3493E+00  0.2506E+01
 -12.230  0.3476E+00  0.2509E+01
 -12.220  0.3460E+00  0.2513E+01
 -12.210  0.3444E+00  0.2516E+01
 -12.200  0.3428E+00  0.2520E+01
 -12.190  0.3412E+00  0.2523E+01
 -12.180  0.3396E+00  0.2526E+01
 -12.170  0.3380E+00  0.2530E+01
 -12.160  0.3364E+00  0.2533E+01
 -12.150  0.3347E+00  0.2537E+01
 -12.140  0.3330E+00  0.2540E+01
 -12.130  0.3314E+00  0.2543E+01
 -12.120  0.3302E+00  0.2547E+01
 -12.110  0.3296E+00  0.2550E+01
 -12.100  0.3291E+00  0.2553E+01
 -12.090  0.3286E+00  0.2556E+01
 -12.080  0.3282E+00  0.2560E+01
 -12.070  0.3277E+00  0.2563E+01
 -12.060  0.3272E+00  0.2566E+01
 -12.050  0.3267E+00  0.2570E+01
 -12.040  0.3262E+00  0.2573E+01
 -12.030  0.3257E+00  0.2576E+01
 -12.020  0.3252E+00  0.2579E+01
 -12.010  0.3247E+00  0.2583E+01
 -12.000  0.3242E+00  0.2586E+01
 -11.990  0.3237E+00  0.2589E+01
 -11.980  0.3232E+00  0.2592E+01
 -11.970  0.3227E+00  0.2595E+01
 -11.960  0.3222E+00  0.2599E+01
 -11.950  0.3217E+00  0.2602E+01
 -11.940  0.3212E+00  0.2605E+01
 -11.930  0.3207E+00  0.2608E+01
 -11.920  0.3202E+00  0.2612E+01
 -11.910  0.3197E+00  0.2615E+01
 -11.900  0.3192E+00  0.2618E+01
 -11.890  0.3187E+00  0.2621E+01
 -11.880  0.3182E+00  0.2624E+01
 -11.870  0.3177E+00  0.2628E+01
 -11.860  0.3172E+00  0.2631E+01
 -11.850  0.3167E+00  0.2634E+01
 -11.840  0.3162E+00  0.2637E+01
 -11.830  0.3156E+00  0.2640E+01
 -11.820  0.3151E+00  0.2643E+01
 -11.810  0.3146E+00  0.2646E+01
 -11.800  0.3140E+00  0.2650E+01
 -11.790  0.3135E+00  0.2653E+01
 -11.780  0.3130E+00  0.2656E+01
 -11.770  0.3124E+00  0.2659E+01
 -11.760  0.3119E+00  0.2662E+01
 -11.750  0.3114E+00  0.2665E+01
 -11.740  0.3108E+00  0.2668E+01
 -11.730  0.3103E+00  0.2671E+01
 -11.720  0.3098E+00  0.2675E+01
 -11.710  0.3092E+00  0.2678E+01
 -11.700  0.3087E+00  0.2681E+01
 -11.690  0.3082E+00  0.2684E+01
 -11.680  0.3076E+00  0.2687E+01
 -11.670  0.3071E+00  0.2690E+01
 -11.660  0.2918E+00  0.2693E+01
 -11.650  0.2916E+00  0.2696E+01
 -11.640  0.2914E+00  0.2699E+01
 -11.630  0.2912E+00  0.2702E+01
 -11.620  0.2909E+00  0.2705E+01
 -11.610  0.2907E+00  0.2707E+01
 -11.600  0.2905E+00  0.2710E+01
 -11.590  0.2903E+00  0.2713E+01
 -11.580  0.2900E+00  0.2716E+01
 -11.570  0.2898E+00  0.2719E+01
 -11.560  0.2896E+00  0.2722E+01
 -11.550  0.2894E+00  0.2725E+01
 -11.540  0.2891E+00  0.2728E+01
 -11.530  0.2889E+00  0.2731E+01
 -11.520  0.2887E+00  0.2734E+01
 -11.510  0.2884E+00  0.2736E+01
 -11.500  0.2882E+00  0.2739E+01
 -11.490  0.2880E+00  0.2742E+01
 -11.480  0.2877E+00  0.2745E+01
 -11.470  0.2875E+00  0.2748E+01
 -11.460  0.2872E+00  0.2751E+01
 -11.450  0.2870E+00  0.2754E+01
 -11.440  0.2868E+00  0.2757E+01
 -11.430  0.2865E+00  0.2759E+01
 -11.420  0.2863E+00  0.2762E+01
 -11.410  0.2860E+00  0.2765E+01
 -11.400  0.2858E+00  0.2768E+01
 -11.390  0.2855E+00  0.2771E+01
 -11.380  0.2853E+00  0.2774E+01
 -11.370  0.2851E+00  0.2777E+01
 -11.360  0.2848E+00  0.2779E+01
 -11.350  0.2846E+00  0.2782E+01
 -11.340  0.2843E+00  0.2785E+01
 -11.330  0.2841E+00  0.2788E+01
 -11.320  0.2838E+00  0.2791E+01
 -11.310  0.2836E+00  0.2794E+01
 -11.300  0.2834E+00  0.2796E+01
 -11.290  0.2830E+00  0.2799E+01
 -11.280  0.2822E+00  0.2802E+01
 -11.270  0.2813E+00  0.2805E+01
 -11.260  0.2805E+00  0.2808E+01
 -11.250  0.2797E+00  0.2811E+01
 -11.240  0.2789E+00  0.2813E+01
 -11.230  0.2780E+00  0.2816E+01
 -11.220  0.2772E+00  0.2819E+01
 -11.210  0.2764E+00  0.2822E+01
 -11.200  0.2756E+00  0.2824E+01
 -11.190  0.2748E+00  0.2827E+01
 -11.180  0.2739E+00  0.2830E+01
 -11.170  0.2731E+00  0.2833E+01
 -11.160  0.2723E+00  0.2835E+01
 -11.150  0.2715E+00  0.2838E+01
 -11.140  0.2706E+00  0.2841E+01
 -11.130  0.2698E+00  0.2844E+01
 -11.120  0.2690E+00  0.2846E+01
 -11.110  0.2682E+00  0.2849E+01
 -11.100  0.2673E+00  0.2852E+01
 -11.090  0.2665E+00  0.2854E+01
 -11.080  0.2657E+00  0.2857E+01
 -11.070  0.2649E+00  0.2860E+01
 -11.060  0.2640E+00  0.2862E+01
 -11.050  0.2632E+00  0.2865E+01
 -11.040  0.2624E+00  0.2867E+01
 -11.030  0.2615E+00  0.2870E+01
 -11.020  0.2611E+00  0.2873E+01
 -11.010  0.2664E+00  0.2875E+01
 -11.000  0.2717E+00  0.2878E+01
 -10.990  0.2772E+00  0.2881E+01
 -10.980  0.2832E+00  0.2884E+01
 -10.970  0.2891E+00  0.2886E+01
 -10.960  0.2950E+00  0.2889E+01
 -10.950  0.3010E+00  0.2892E+01
 -10.940  0.3069E+00  0.2895E+01
 -10.930  0.3129E+00  0.2898E+01
 -10.920  0.3188E+00  0.2902E+01
 -10.910  0.3247E+00  0.2905E+01
 -10.900  0.3304E+00  0.2908E+01
 -10.890  0.3362E+00  0.2911E+01
 -10.880  0.3420E+00  0.2915E+01
 -10.870  0.3478E+00  0.2918E+01
 -10.860  0.3536E+00  0.2922E+01
 -10.850  0.3593E+00  0.2925E+01
 -10.840  0.3651E+00  0.2929E+01
 -10.830  0.3709E+00  0.2933E+01
 -10.820  0.3767E+00  0.2936E+01
 -10.810  0.3825E+00  0.2940E+01
 -10.800  0.3883E+00  0.2944E+01
 -10.790  0.3940E+00  0.2948E+01
 -10.780  0.3998E+00  0.2952E+01
 -10.770  0.4056E+00  0.2956E+01
 -10.760  0.4114E+00  0.2960E+01
 -10.750  0.3608E+00  0.2964E+01
 -10.740  0.3608E+00  0.2967E+01
 -10.730  0.3608E+00  0.2971E+01
 -10.720  0.3609E+00  0.2975E+01
 -10.710  0.3609E+00  0.2978E+01
 -10.700  0.3609E+00  0.2982E+01
 -10.690  0.3609E+00  0.2985E+01
 -10.680  0.3610E+00  0.2989E+01
 -10.670  0.3610E+00  0.2993E+01
 -10.660  0.3610E+00  0.2996E+01
 -10.650  0.3611E+00  0.3000E+01
 -10.640  0.3611E+00  0.3003E+01
 -10.630  0.3611E+00  0.3007E+01
 -10.620  0.3611E+00  0.3011E+01
 -10.610  0.3612E+00  0.3014E+01
 -10.600  0.3612E+00  0.3018E+01
 -10.590  0.3612E+00  0.3021E+01
 -10.580  0.3612E+00  0.3025E+01
 -10.570  0.3613E+00  0.3029E+01
 -10.560  0.3613E+00  0.3032E+01
 -10.550  0.3613E+00  0.3036E+01
 -10.540  0.3613E+00  0.3040E+01
 -10.530  0.3613E+00  0.3043E+01
 -10.520  0.3614E+00  0.3047E+01
 -10.510  0.3614E+00  0.3050E+01
 -10.500  0.3614E+00  0.3054E+01
 -10.490  0.3614E+00  0.3058E+01
 -10.480  0.3613E+00  0.3061E+01
 -10.470  0.3613E+00  0.3065E+01
 -10.460  0.3618E+00  0.3068E+01
 -10.450  0.3627E+00  0.3072E+01
 -10.440  0.3534E+00  0.3076E+01
 -10.430  0.3545E+00  0.3079E+01
 -10.420  0.3556E+00  0.3083E+01
 -10.410  0.3567E+00  0.3086E+01
 -10.400  0.3579E+00  0.3090E+01
 -10.390  0.3590E+00  0.3093E+01
 -10.380  0.3601E+00  0.3097E+01
 -10.370  0.3612E+00  0.3101E+01
 -10.360  0.3623E+00  0.3104E+01
 -10.350  0.3634E+00  0.3108E+01
 -10.340  0.3645E+00  0.3112E+01
 -10.330  0.3656E+00  0.3115E+01
 -10.320  0.3667E+00  0.3119E+01
 -10.310  0.3678E+00  0.3123E+01
 -10.300  0.3689E+00  0.3126E+01
 -10.290  0.3700E+00  0.3130E+01
 -10.280  0.3711E+00  0.3134E+01
 -10.270  0.3722E+00  0.3137E+01
 -10.260  0.3733E+00  0.3141E+01
 -10.250  0.3744E+00  0.3145E+01
 -10.240  0.3755E+00  0.3149E+01
 -10.230  0.3766E+00  0.3152E+01
 -10.220  0.3777E+00  0.3156E+01
 -10.210  0.3788E+00  0.3160E+01
 -10.200  0.3795E+00  0.3164E+01
 -10.190  0.3791E+00  0.3167E+01
 -10.180  0.3786E+00  0.3171E+01
 -10.170  0.3782E+00  0.3175E+01
 -10.160  0.3777E+00  0.3179E+01
 -10.150  0.3772E+00  0.3183E+01
 -10.140  0.3768E+00  0.3186E+01
 -10.130  0.3763E+00  0.3190E+01
 -10.120  0.3761E+00  0.3194E+01
 -10.110  0.3762E+00  0.3198E+01
 -10.100  0.3762E+00  0.3201E+01
 -10.090  0.3762E+00  0.3205E+01
 -10.080  0.3762E+00  0.3209E+01
 -10.070  0.3762E+00  0.3213E+01
 -10.060  0.3762E+00  0.3216E+01
 -10.050  0.3762E+00  0.3220E+01
 -10.040  0.3762E+00  0.3224E+01
 -10.030  0.3762E+00  0.3228E+01
 -10.020  0.3762E+00  0.3232E+01
 -10.010  0.3761E+00  0.3235E+01
 -10.000  0.3761E+00  0.3239E+01
  -9.990  0.3761E+00  0.3243E+01
  -9.980  0.3761E+00  0.3247E+01
  -9.970  0.3761E+00  0.3250E+01
  -9.960  0.3760E+00  0.3254E+01
  -9.950  0.3757E+00  0.3258E+01
  -9.940  0.3752E+00  0.3262E+01
  -9.930  0.3748E+00  0.3265E+01
  -9.920  0.3743E+00  0.3269E+01
  -9.910  0.3739E+00  0.3273E+01
  -9.900  0.3734E+00  0.3277E+01
  -9.890  0.3730E+00  0.3280E+01
  -9.880  0.3820E+00  0.3284E+01
  -9.870  0.3819E+00  0.3288E+01
  -9.860  0.3818E+00  0.3292E+01
  -9.850  0.3817E+00  0.3295E+01
  -9.840  0.3816E+00  0.3299E+01
  -9.830  0.3815E+00  0.3303E+01
  -9.820  0.3815E+00  0.3307E+01
  -9.810  0.3814E+00  0.3311E+01
  -9.800  0.3813E+00  0.3315E+01
  -9.790  0.3812E+00  0.3318E+01
  -9.780  0.3811E+00  0.3322E+01
  -9.770  0.3810E+00  0.3326E+01
  -9.760  0.3809E+00  0.3330E+01
  -9.750  0.3808E+00  0.3334E+01
  -9.740  0.3808E+00  0.3337E+01
  -9.730  0.3807E+00  0.3341E+01
  -9.720  0.3806E+00  0.3345E+01
  -9.710  0.3805E+00  0.3349E+01
  -9.700  0.3804E+00  0.3353E+01
  -9.690  0.3803E+00  0.3356E+01
  -9.680  0.3805E+00  0.3360E+01
  -9.670  0.3810E+00  0.3364E+01
  -9.660  0.3814E+00  0.3368E+01
  -9.650  0.3818E+00  0.3372E+01
  -9.640  0.3822E+00  0.3376E+01
  -9.630  0.3826E+00  0.3379E+01
  -9.620  0.3831E+00  0.3383E+01
  -9.610  0.3835E+00  0.3387E+01
  -9.600  0.3839E+00  0.3391E+01
  -9.590  0.3843E+00  0.3395E+01
  -9.580  0.3847E+00  0.3399E+01
  -9.570  0.3852E+00  0.3402E+01
  -9.560  0.3856E+00  0.3406E+01
  -9.550  0.3860E+00  0.3410E+01
  -9.540  0.3864E+00  0.3414E+01
  -9.530  0.3868E+00  0.3418E+01
  -9.520  0.3872E+00  0.3422E+01
  -9.510  0.3876E+00  0.3426E+01
  -9.500  0.3880E+00  0.3429E+01
  -9.490  0.3884E+00  0.3433E+01
  -9.480  0.3888E+00  0.3437E+01
  -9.470  0.3891E+00  0.3441E+01
  -9.460  0.3894E+00  0.3445E+01
  -9.450  0.3897E+00  0.3449E+01
  -9.440  0.3902E+00  0.3453E+01
  -9.430  0.3904E+00  0.3457E+01
  -9.420  0.3907E+00  0.3461E+01
  -9.410  0.3913E+00  0.3464E+01
  -9.400  0.3921E+00  0.3468E+01
  -9.390  0.3928E+00  0.3472E+01
  -9.380  0.3935E+00  0.3476E+01
  -9.370  0.3942E+00  0.3480E+01
  -9.360  0.3950E+00  0.3484E+01
  -9.350  0.3957E+00  0.3488E+01
  -9.340  0.3964E+00  0.3492E+01
  -9.330  0.3970E+00  0.3496E+01
  -9.320  0.3975E+00  0.3500E+01
  -9.310  0.3981E+00  0.3504E+01
  -9.300  0.3986E+00  0.3508E+01
  -9.290  0.3992E+00  0.3512E+01
  -9.280  0.3997E+00  0.3516E+01
  -9.270  0.4003E+00  0.3520E+01
  -9.260  0.4008E+00  0.3524E+01
  -9.250  0.4014E+00  0.3528E+01
  -9.240  0.4019E+00  0.3532E+01
  -9.230  0.4025E+00  0.3536E+01
  -9.220  0.4030E+00  0.3540E+01
  -9.210  0.4036E+00  0.3544E+01
  -9.200  0.4041E+00  0.3548E+01
  -9.190  0.4047E+00  0.3552E+01
  -9.180  0.4052E+00  0.3556E+01
  -9.170  0.4058E+00  0.3560E+01
  -9.160  0.4063E+00  0.3564E+01
  -9.150  0.4069E+00  0.3568E+01
  -9.140  0.4074E+00  0.3572E+01
  -9.130  0.4080E+00  0.3577E+01
  -9.120  0.4086E+00  0.3581E+01
  -9.110  0.4091E+00  0.3585E+01
  -9.100  0.4092E+00  0.3589E+01
  -9.090  0.4094E+00  0.3593E+01
  -9.080  0.4096E+00  0.3597E+01
  -9.070  0.4097E+00  0.3601E+01
  -9.060  0.4099E+00  0.3605E+01
  -9.050  0.4101E+00  0.3609E+01
  -9.040  0.4034E+00  0.3613E+01
  -9.030  0.4037E+00  0.3617E+01
  -9.020  0.4040E+00  0.3621E+01
  -9.010  0.4044E+00  0.3625E+01
  -9.000  0.4047E+00  0.3629E+01
  -8.990  0.4050E+00  0.3634E+01
  -8.980  0.4053E+00  0.3638E+01
  -8.970  0.4056E+00  0.3642E+01
  -8.960  0.4059E+00  0.3646E+01
  -8.950  0.4062E+00  0.3650E+01
  -8.940  0.4065E+00  0.3654E+01
  -8.930  0.4067E+00  0.3658E+01
  -8.920  0.4070E+00  0.3662E+01
  -8.910  0.4073E+00  0.3666E+01
  -8.900  0.4076E+00  0.3670E+01
  -8.890  0.4078E+00  0.3674E+01
  -8.880  0.4081E+00  0.3678E+01
  -8.870  0.4084E+00  0.3682E+01
  -8.860  0.4086E+00  0.3686E+01
  -8.850  0.4089E+00  0.3691E+01
  -8.840  0.4092E+00  0.3695E+01
  -8.830  0.4095E+00  0.3699E+01
  -8.820  0.4097E+00  0.3703E+01
  -8.810  0.4100E+00  0.3707E+01
  -8.800  0.4103E+00  0.3711E+01
  -8.790  0.4106E+00  0.3715E+01
  -8.780  0.4108E+00  0.3719E+01
  -8.770  0.4111E+00  0.3723E+01
  -8.760  0.4114E+00  0.3727E+01
  -8.750  0.4117E+00  0.3732E+01
  -8.740  0.4119E+00  0.3736E+01
  -8.730  0.4195E+00  0.3740E+01
  -8.720  0.4200E+00  0.3744E+01
  -8.710  0.4204E+00  0.3748E+01
  -8.700  0.4208E+00  0.3752E+01
  -8.690  0.4222E+00  0.3757E+01
  -8.680  0.4240E+00  0.3761E+01
  -8.670  0.4257E+00  0.3765E+01
  -8.660  0.4275E+00  0.3769E+01
  -8.650  0.4291E+00  0.3774E+01
  -8.640  0.4299E+00  0.3778E+01
  -8.630  0.4307E+00  0.3782E+01
  -8.620  0.4315E+00  0.3787E+01
  -8.610  0.4323E+00  0.3791E+01
  -8.600  0.4332E+00  0.3795E+01
  -8.590  0.4340E+00  0.3800E+01
  -8.580  0.4348E+00  0.3804E+01
  -8.570  0.4356E+00  0.3808E+01
  -8.560  0.4364E+00  0.3813E+01
  -8.550  0.4372E+00  0.3817E+01
  -8.540  0.4381E+00  0.3821E+01
  -8.530  0.4389E+00  0.3826E+01
  -8.520  0.4397E+00  0.3830E+01
  -8.510  0.4405E+00  0.3835E+01
  -8.500  0.4410E+00  0.3839E+01
  -8.490  0.4416E+00  0.3843E+01
  -8.480  0.4422E+00  0.3848E+01
  -8.470  0.4427E+00  0.3852E+01
  -8.460  0.4430E+00  0.3857E+01
  -8.450  0.4432E+00  0.3861E+01
  -8.440  0.4434E+00  0.3866E+01
  -8.430  0.4437E+00  0.3870E+01
  -8.420  0.4439E+00  0.3874E+01
  -8.410  0.4441E+00  0.3879E+01
  -8.400  0.4443E+00  0.3883E+01
  -8.390  0.4446E+00  0.3888E+01
  -8.380  0.4448E+00  0.3892E+01
  -8.370  0.4450E+00  0.3897E+01
  -8.360  0.4452E+00  0.3901E+01
  -8.350  0.4455E+00  0.3906E+01
  -8.340  0.4457E+00  0.3910E+01
  -8.330  0.4459E+00  0.3914E+01
  -8.320  0.4461E+00  0.3919E+01
  -8.310  0.4463E+00  0.3923E+01
  -8.300  0.4466E+00  0.3928E+01
  -8.290  0.4468E+00  0.3932E+01
  -8.280  0.4470E+00  0.3937E+01
  -8.270  0.4471E+00  0.3941E+01
  -8.260  0.4471E+00  0.3946E+01
  -8.250  0.4471E+00  0.3950E+01
  -8.240  0.4471E+00  0.3955E+01
  -8.230  0.4472E+00  0.3959E+01
  -8.220  0.4476E+00  0.3964E+01
  -8.210  0.4480E+00  0.3968E+01
  -8.200  0.4485E+00  0.3973E+01
  -8.190  0.4489E+00  0.3977E+01
  -8.180  0.4496E+00  0.3982E+01
  -8.170  0.4504E+00  0.3986E+01
  -8.160  0.4513E+00  0.3991E+01
  -8.150  0.4521E+00  0.3995E+01
  -8.140  0.4529E+00  0.4000E+01
  -8.130  0.4538E+00  0.4004E+01
  -8.120  0.4546E+00  0.4009E+01
  -8.110  0.4554E+00  0.4013E+01
  -8.100  0.4563E+00  0.4018E+01
  -8.090  0.4571E+00  0.4022E+01
  -8.080  0.4579E+00  0.4027E+01
  -8.070  0.4827E+00  0.4032E+01
  -8.060  0.5701E+00  0.4037E+01
  -8.050  0.6575E+00  0.4043E+01
  -8.040  0.7448E+00  0.4050E+01
  -8.030  0.8322E+00  0.4058E+01
  -8.020  0.6783E+00  0.4066E+01
  -8.010  0.6864E+00  0.4073E+01
  -8.000  0.6944E+00  0.4079E+01
  -7.990  0.7025E+00  0.4086E+01
  -7.980  0.7181E+00  0.4094E+01
  -7.970  0.7279E+00  0.4101E+01
  -7.960  0.7377E+00  0.4108E+01
  -7.950  0.7475E+00  0.4116E+01
  -7.940  0.7572E+00  0.4123E+01
  -7.930  0.7668E+00  0.4131E+01
  -7.920  0.7669E+00  0.4138E+01
  -7.910  0.7600E+00  0.4146E+01
  -7.900  0.7531E+00  0.4154E+01
  -7.890  0.7458E+00  0.4161E+01
  -7.880  0.7381E+00  0.4168E+01
  -7.870  0.7382E+00  0.4176E+01
  -7.860  0.7419E+00  0.4183E+01
  -7.850  0.7456E+00  0.4191E+01
  -7.840  0.7494E+00  0.4198E+01
  -7.830  0.7531E+00  0.4206E+01
  -7.820  0.7568E+00  0.4213E+01
  -7.810  0.7606E+00  0.4221E+01
  -7.800  0.7643E+00  0.4228E+01
  -7.790  0.7680E+00  0.4236E+01
  -7.780  0.7718E+00  0.4244E+01
  -7.770  0.7755E+00  0.4252E+01
  -7.760  0.7792E+00  0.4259E+01
  -7.750  0.7830E+00  0.4267E+01
  -7.740  0.7867E+00  0.4275E+01
  -7.730  0.7694E+00  0.4283E+01
  -7.720  0.7700E+00  0.4291E+01
  -7.710  0.7703E+00  0.4298E+01
  -7.700  0.7706E+00  0.4306E+01
  -7.690  0.7709E+00  0.4314E+01
  -7.680  0.7713E+00  0.4321E+01
  -7.670  0.7716E+00  0.4329E+01
  -7.660  0.7719E+00  0.4337E+01
  -7.650  0.7722E+00  0.4345E+01
  -7.640  0.7726E+00  0.4352E+01
  -7.630  0.7735E+00  0.4360E+01
  -7.620  0.7756E+00  0.4368E+01
  -7.610  0.7778E+00  0.4375E+01
  -7.600  0.7800E+00  0.4383E+01
  -7.590  0.7821E+00  0.4391E+01
  -7.580  0.7843E+00  0.4399E+01
  -7.570  0.7865E+00  0.4407E+01
  -7.560  0.7886E+00  0.4415E+01
  -7.550  0.7908E+00  0.4423E+01
  -7.540  0.7929E+00  0.4430E+01
  -7.530  0.7951E+00  0.4438E+01
  -7.520  0.7951E+00  0.4446E+01
  -7.510  0.7975E+00  0.4454E+01
  -7.500  0.7998E+00  0.4462E+01
  -7.490  0.8021E+00  0.4470E+01
  -7.480  0.8009E+00  0.4478E+01
  -7.470  0.8045E+00  0.4486E+01
  -7.460  0.8022E+00  0.4494E+01
  -7.450  0.7998E+00  0.4502E+01
  -7.440  0.7974E+00  0.4510E+01
  -7.430  0.7983E+00  0.4518E+01
  -7.420  0.7995E+00  0.4526E+01
  -7.410  0.8007E+00  0.4534E+01
  -7.400  0.8107E+00  0.4542E+01
  -7.390  0.8214E+00  0.4551E+01
  -7.380  0.8322E+00  0.4559E+01
  -7.370  0.8429E+00  0.4567E+01
  -7.360  0.8486E+00  0.4576E+01
  -7.350  0.8560E+00  0.4584E+01
  -7.340  0.8642E+00  0.4593E+01
  -7.330  0.8724E+00  0.4601E+01
  -7.320  0.8806E+00  0.4610E+01
  -7.310  0.8888E+00  0.4619E+01
  -7.300  0.8971E+00  0.4628E+01
  -7.290  0.9055E+00  0.4637E+01
  -7.280  0.9143E+00  0.4646E+01
  -7.270  0.9230E+00  0.4655E+01
  -7.260  0.9318E+00  0.4665E+01
  -7.250  0.9405E+00  0.4674E+01
  -7.240  0.9488E+00  0.4683E+01
  -7.230  0.9561E+00  0.4693E+01
  -7.220  0.9635E+00  0.4703E+01
  -7.210  0.9709E+00  0.4712E+01
  -7.200  0.9783E+00  0.4722E+01
  -7.190  0.9857E+00  0.4732E+01
  -7.180  0.9931E+00  0.4742E+01
  -7.170  0.1000E+01  0.4752E+01
  -7.160  0.1008E+01  0.4762E+01
  -7.150  0.1015E+01  0.4772E+01
  -7.140  0.1023E+01  0.4782E+01
  -7.130  0.1038E+01  0.4792E+01
  -7.120  0.1053E+01  0.4803E+01
  -7.110  0.1068E+01  0.4813E+01
  -7.100  0.1083E+01  0.4824E+01
  -7.090  0.1098E+01  0.4835E+01
  -7.080  0.1113E+01  0.4846E+01
  -7.070  0.1128E+01  0.4857E+01
  -7.060  0.1143E+01  0.4869E+01
  -7.050  0.1143E+01  0.4880E+01
  -7.040  0.1120E+01  0.4891E+01
  -7.030  0.1097E+01  0.4902E+01
  -7.020  0.1073E+01  0.4913E+01
  -7.010  0.1163E+01  0.4924E+01
  -7.000  0.1164E+01  0.4936E+01
  -6.990  0.1164E+01  0.4947E+01
  -6.980  0.1165E+01  0.4959E+01
  -6.970  0.1166E+01  0.4971E+01
  -6.960  0.1167E+01  0.4982E+01
  -6.950  0.1168E+01  0.4994E+01
  -6.940  0.1169E+01  0.5006E+01
  -6.930  0.1170E+01  0.5017E+01
  -6.920  0.1156E+01  0.5029E+01
  -6.910  0.1139E+01  0.5040E+01
  -6.900  0.1123E+01  0.5052E+01
  -6.890  0.1108E+01  0.5063E+01
  -6.880  0.1070E+01  0.5074E+01
  -6.870  0.9886E+00  0.5084E+01
  -6.860  0.9104E+00  0.5094E+01
  -6.850  0.8392E+00  0.5102E+01
  -6.840  0.7810E+00  0.5110E+01
  -6.830  0.7596E+00  0.5118E+01
  -6.820  0.7383E+00  0.5126E+01
  -6.810  0.7198E+00  0.5133E+01
  -6.800  0.7067E+00  0.5140E+01
  -6.790  0.6936E+00  0.5147E+01
  -6.780  0.6805E+00  0.5154E+01
  -6.770  0.6674E+00  0.5161E+01
  -6.760  0.6574E+00  0.5167E+01
  -6.750  0.6482E+00  0.5174E+01
  -6.740  0.6389E+00  0.5180E+01
  -6.730  0.6295E+00  0.5187E+01
  -6.720  0.6222E+00  0.5193E+01
  -6.710  0.6960E+00  0.5199E+01
  -6.700  0.7699E+00  0.5207E+01
  -6.690  0.8417E+00  0.5215E+01
  -6.680  0.8621E+00  0.5223E+01
  -6.670  0.8825E+00  0.5232E+01
  -6.660  0.9029E+00  0.5241E+01
  -6.650  0.9233E+00  0.5250E+01
  -6.640  0.9437E+00  0.5259E+01
  -6.630  0.9641E+00  0.5269E+01
  -6.620  0.9845E+00  0.5279E+01
  -6.610  0.1005E+01  0.5289E+01
  -6.600  0.1025E+01  0.5299E+01
  -6.590  0.1046E+01  0.5309E+01
  -6.580  0.1066E+01  0.5320E+01
  -6.570  0.1062E+01  0.5330E+01
  -6.560  0.1053E+01  0.5341E+01
  -6.550  0.1045E+01  0.5351E+01
  -6.540  0.1037E+01  0.5362E+01
  -6.530  0.1029E+01  0.5372E+01
  -6.520  0.9993E+00  0.5382E+01
  -6.510  0.9930E+00  0.5392E+01
  -6.500  0.9866E+00  0.5402E+01
  -6.490  0.9803E+00  0.5412E+01
  -6.480  0.9740E+00  0.5422E+01
  -6.470  0.9677E+00  0.5431E+01
  -6.460  0.9614E+00  0.5441E+01
  -6.450  0.9551E+00  0.5451E+01
  -6.440  0.9487E+00  0.5460E+01
  -6.430  0.9424E+00  0.5470E+01
  -6.420  0.9361E+00  0.5479E+01
  -6.410  0.9298E+00  0.5488E+01
  -6.400  0.9242E+00  0.5498E+01
  -6.390  0.9194E+00  0.5507E+01
  -6.380  0.9145E+00  0.5516E+01
  -6.370  0.9096E+00  0.5525E+01
  -6.360  0.9047E+00  0.5534E+01
  -6.350  0.8998E+00  0.5543E+01
  -6.340  0.8955E+00  0.5552E+01
  -6.330  0.8919E+00  0.5561E+01
  -6.320  0.8887E+00  0.5570E+01
  -6.310  0.8899E+00  0.5579E+01
  -6.300  0.8911E+00  0.5588E+01
  -6.290  0.7940E+00  0.5596E+01
  -6.280  0.7758E+00  0.5604E+01
  -6.270  0.7576E+00  0.5612E+01
  -6.260  0.7395E+00  0.5619E+01
  -6.250  0.7213E+00  0.5627E+01
  -6.240  0.7001E+00  0.5634E+01
  -6.230  0.6786E+00  0.5641E+01
  -6.220  0.6570E+00  0.5647E+01
  -6.210  0.6376E+00  0.5654E+01
  -6.200  0.6201E+00  0.5660E+01
  -6.190  0.6974E+00  0.5667E+01
  -6.180  0.6938E+00  0.5673E+01
  -6.170  0.6902E+00  0.5680E+01
  -6.160  0.6866E+00  0.5687E+01
  -6.150  0.6829E+00  0.5694E+01
  -6.140  0.6793E+00  0.5701E+01
  -6.130  0.6757E+00  0.5708E+01
  -6.120  0.6721E+00  0.5714E+01
  -6.110  0.6684E+00  0.5721E+01
  -6.100  0.6648E+00  0.5728E+01
  -6.090  0.6612E+00  0.5734E+01
  -6.080  0.6576E+00  0.5741E+01
  -6.070  0.6539E+00  0.5748E+01
  -6.060  0.6503E+00  0.5754E+01
  -6.050  0.6467E+00  0.5761E+01
  -6.040  0.6431E+00  0.5767E+01
  -6.030  0.6394E+00  0.5773E+01
  -6.020  0.6358E+00  0.5780E+01
  -6.010  0.6206E+00  0.5786E+01
  -6.000  0.6037E+00  0.5792E+01
  -5.990  0.5869E+00  0.5798E+01
  -5.980  0.5755E+00  0.5804E+01
  -5.970  0.5627E+00  0.5810E+01
  -5.960  0.5529E+00  0.5815E+01
  -5.950  0.5430E+00  0.5821E+01
  -5.940  0.5331E+00  0.5826E+01
  -5.930  0.5233E+00  0.5831E+01
  -5.920  0.5134E+00  0.5837E+01
  -5.910  0.5036E+00  0.5842E+01
  -5.900  0.5183E+00  0.5847E+01
  -5.890  0.5335E+00  0.5852E+01
  -5.880  0.5487E+00  0.5857E+01
  -5.870  0.5640E+00  0.5863E+01
  -5.860  0.5792E+00  0.5869E+01
  -5.850  0.5945E+00  0.5875E+01
  -5.840  0.6162E+00  0.5881E+01
  -5.830  0.6398E+00  0.5887E+01
  -5.820  0.6635E+00  0.5893E+01
  -5.810  0.6871E+00  0.5900E+01
  -5.800  0.7108E+00  0.5907E+01
  -5.790  0.7344E+00  0.5914E+01
  -5.780  0.7562E+00  0.5922E+01
  -5.770  0.7747E+00  0.5930E+01
  -5.760  0.7931E+00  0.5937E+01
  -5.750  0.8116E+00  0.5945E+01
  -5.740  0.8170E+00  0.5954E+01
  -5.730  0.8090E+00  0.5962E+01
  -5.720  0.8010E+00  0.5970E+01
  -5.710  0.7931E+00  0.5978E+01
  -5.700  0.7852E+00  0.5986E+01
  -5.690  0.7773E+00  0.5993E+01
  -5.680  0.7694E+00  0.6001E+01
  -5.670  0.7615E+00  0.6009E+01
  -5.660  0.7536E+00  0.6016E+01
  -5.650  0.7457E+00  0.6024E+01
  -5.640  0.7377E+00  0.6031E+01
  -5.630  0.7298E+00  0.6039E+01
  -5.620  0.7219E+00  0.6046E+01
  -5.610  0.7142E+00  0.6053E+01
  -5.600  0.7087E+00  0.6060E+01
  -5.590  0.7045E+00  0.6067E+01
  -5.580  0.7003E+00  0.6074E+01
  -5.570  0.6961E+00  0.6081E+01
  -5.560  0.6919E+00  0.6088E+01
  -5.550  0.6877E+00  0.6095E+01
  -5.540  0.6835E+00  0.6102E+01
  -5.530  0.6793E+00  0.6109E+01
  -5.520  0.6751E+00  0.6116E+01
  -5.510  0.6715E+00  0.6122E+01
  -5.500  0.6688E+00  0.6129E+01
  -5.490  0.6660E+00  0.6136E+01
  -5.480  0.6632E+00  0.6142E+01
  -5.470  0.6605E+00  0.6149E+01
  -5.460  0.6577E+00  0.6155E+01
  -5.450  0.6550E+00  0.6162E+01
  -5.440  0.6522E+00  0.6169E+01
  -5.430  0.6495E+00  0.6175E+01
  -5.420  0.6467E+00  0.6182E+01
  -5.410  0.6439E+00  0.6188E+01
  -5.400  0.6411E+00  0.6194E+01
  -5.390  0.6383E+00  0.6201E+01
  -5.380  0.6362E+00  0.6207E+01
  -5.370  0.6352E+00  0.6214E+01
  -5.360  0.6342E+00  0.6220E+01
  -5.350  0.6331E+00  0.6226E+01
  -5.340  0.6321E+00  0.6233E+01
  -5.330  0.6311E+00  0.6239E+01
  -5.320  0.6300E+00  0.6245E+01
  -5.310  0.6290E+00  0.6252E+01
  -5.300  0.6280E+00  0.6258E+01
  -5.290  0.6269E+00  0.6264E+01
  -5.280  0.6259E+00  0.6270E+01
  -5.270  0.6248E+00  0.6277E+01
  -5.260  0.6238E+00  0.6283E+01
  -5.250  0.6228E+00  0.6289E+01
  -5.240  0.6217E+00  0.6295E+01
  -5.230  0.6207E+00  0.6302E+01
  -5.220  0.6197E+00  0.6308E+01
  -5.210  0.6186E+00  0.6314E+01
  -5.200  0.6176E+00  0.6320E+01
  -5.190  0.6148E+00  0.6326E+01
  -5.180  0.6134E+00  0.6332E+01
  -5.170  0.6121E+00  0.6339E+01
  -5.160  0.6108E+00  0.6345E+01
  -5.150  0.6094E+00  0.6351E+01
  -5.140  0.6081E+00  0.6357E+01
  -5.130  0.6068E+00  0.6363E+01
  -5.120  0.6054E+00  0.6369E+01
  -5.110  0.6041E+00  0.6375E+01
  -5.100  0.6029E+00  0.6381E+01
  -5.090  0.6018E+00  0.6387E+01
  -5.080  0.6008E+00  0.6393E+01
  -5.070  0.5999E+00  0.6399E+01
  -5.060  0.5991E+00  0.6405E+01
  -5.050  0.5982E+00  0.6411E+01
  -5.040  0.5974E+00  0.6417E+01
  -5.030  0.5965E+00  0.6423E+01
  -5.020  0.5957E+00  0.6429E+01
  -5.010  0.6032E+00  0.6435E+01
  -5.000  0.6041E+00  0.6441E+01
  -4.990  0.6050E+00  0.6447E+01
  -4.980  0.6059E+00  0.6453E+01
  -4.970  0.6059E+00  0.6459E+01
  -4.960  0.6049E+00  0.6465E+01
  -4.950  0.6039E+00  0.6471E+01
  -4.940  0.6029E+00  0.6477E+01
  -4.930  0.6019E+00  0.6483E+01
  -4.920  0.6010E+00  0.6489E+01
  -4.910  0.6001E+00  0.6495E+01
  -4.900  0.5991E+00  0.6501E+01
  -4.890  0.5982E+00  0.6507E+01
  -4.880  0.5973E+00  0.6513E+01
  -4.870  0.5964E+00  0.6519E+01
  -4.860  0.5955E+00  0.6525E+01
  -4.850  0.5946E+00  0.6531E+01
  -4.840  0.5937E+00  0.6537E+01
  -4.830  0.5928E+00  0.6543E+01
  -4.820  0.5919E+00  0.6549E+01
  -4.810  0.5910E+00  0.6555E+01
  -4.800  0.5901E+00  0.6561E+01
  -4.790  0.5892E+00  0.6567E+01
  -4.780  0.5883E+00  0.6573E+01
  -4.770  0.5874E+00  0.6578E+01
  -4.760  0.5865E+00  0.6584E+01
  -4.750  0.5856E+00  0.6590E+01
  -4.740  0.5847E+00  0.6596E+01
  -4.730  0.5838E+00  0.6602E+01
  -4.720  0.5829E+00  0.6608E+01
  -4.710  0.5820E+00  0.6614E+01
  -4.700  0.5811E+00  0.6619E+01
  -4.690  0.5802E+00  0.6625E+01
  -4.680  0.5793E+00  0.6631E+01
  -4.670  0.5785E+00  0.6637E+01
  -4.660  0.5777E+00  0.6643E+01
  -4.650  0.5768E+00  0.6648E+01
  -4.640  0.5760E+00  0.6654E+01
  -4.630  0.5756E+00  0.6660E+01
  -4.620  0.5753E+00  0.6666E+01
  -4.610  0.5750E+00  0.6671E+01
  -4.600  0.5747E+00  0.6677E+01
  -4.590  0.5744E+00  0.6683E+01
  -4.580  0.5741E+00  0.6689E+01
  -4.570  0.5754E+00  0.6694E+01
  -4.560  0.5744E+00  0.6700E+01
  -4.550  0.5734E+00  0.6706E+01
  -4.540  0.5724E+00  0.6712E+01
  -4.530  0.5715E+00  0.6717E+01
  -4.520  0.5867E+00  0.6723E+01
  -4.510  0.5855E+00  0.6729E+01
  -4.500  0.5843E+00  0.6735E+01
  -4.490  0.5831E+00  0.6741E+01
  -4.480  0.5820E+00  0.6746E+01
  -4.470  0.5808E+00  0.6752E+01
  -4.460  0.5796E+00  0.6758E+01
  -4.450  0.5784E+00  0.6764E+01
  -4.440  0.5773E+00  0.6770E+01
  -4.430  0.5761E+00  0.6775E+01
  -4.420  0.5749E+00  0.6781E+01
  -4.410  0.5738E+00  0.6787E+01
  -4.400  0.5727E+00  0.6793E+01
  -4.390  0.5717E+00  0.6798E+01
  -4.380  0.5706E+00  0.6804E+01
  -4.370  0.5696E+00  0.6810E+01
  -4.360  0.5685E+00  0.6815E+01
  -4.350  0.5675E+00  0.6821E+01
  -4.340  0.5665E+00  0.6827E+01
  -4.330  0.5655E+00  0.6832E+01
  -4.320  0.5644E+00  0.6838E+01
  -4.310  0.5634E+00  0.6844E+01
  -4.300  0.5624E+00  0.6849E+01
  -4.290  0.5614E+00  0.6855E+01
  -4.280  0.5604E+00  0.6861E+01
  -4.270  0.5593E+00  0.6866E+01
  -4.260  0.5583E+00  0.6872E+01
  -4.250  0.5573E+00  0.6877E+01
  -4.240  0.5563E+00  0.6883E+01
  -4.230  0.5553E+00  0.6888E+01
  -4.220  0.5543E+00  0.6894E+01
  -4.210  0.5534E+00  0.6900E+01
  -4.200  0.5537E+00  0.6905E+01
  -4.190  0.5541E+00  0.6911E+01
  -4.180  0.5544E+00  0.6916E+01
  -4.170  0.5548E+00  0.6922E+01
  -4.160  0.5552E+00  0.6927E+01
  -4.150  0.5560E+00  0.6933E+01
  -4.140  0.5570E+00  0.6938E+01
  -4.130  0.5579E+00  0.6944E+01
  -4.120  0.5589E+00  0.6950E+01
  -4.110  0.5598E+00  0.6955E+01
  -4.100  0.5743E+00  0.6961E+01
  -4.090  0.5736E+00  0.6966E+01
  -4.080  0.5730E+00  0.6972E+01
  -4.070  0.5723E+00  0.6978E+01
  -4.060  0.5716E+00  0.6984E+01
  -4.050  0.5710E+00  0.6989E+01
  -4.040  0.5703E+00  0.6995E+01
  -4.030  0.5696E+00  0.7001E+01
  -4.020  0.5690E+00  0.7006E+01
  -4.010  0.5683E+00  0.7012E+01
  -4.000  0.5676E+00  0.7018E+01
  -3.990  0.5667E+00  0.7024E+01
  -3.980  0.5651E+00  0.7029E+01
  -3.970  0.5635E+00  0.7035E+01
  -3.960  0.5619E+00  0.7040E+01
  -3.950  0.5604E+00  0.7046E+01
  -3.940  0.5589E+00  0.7052E+01
  -3.930  0.5574E+00  0.7057E+01
  -3.920  0.5559E+00  0.7063E+01
  -3.910  0.5544E+00  0.7068E+01
  -3.900  0.5529E+00  0.7074E+01
  -3.890  0.5514E+00  0.7079E+01
  -3.880  0.5491E+00  0.7085E+01
  -3.870  0.5475E+00  0.7090E+01
  -3.860  0.5458E+00  0.7096E+01
  -3.850  0.5442E+00  0.7101E+01
  -3.840  0.5455E+00  0.7107E+01
  -3.830  0.5490E+00  0.7112E+01
  -3.820  0.5526E+00  0.7118E+01
  -3.810  0.5563E+00  0.7123E+01
  -3.800  0.5601E+00  0.7129E+01
  -3.790  0.5638E+00  0.7134E+01
  -3.780  0.5675E+00  0.7140E+01
  -3.770  0.5680E+00  0.7146E+01
  -3.760  0.5651E+00  0.7151E+01
  -3.750  0.5623E+00  0.7157E+01
  -3.740  0.5594E+00  0.7163E+01
  -3.730  0.5566E+00  0.7168E+01
  -3.720  0.5537E+00  0.7174E+01
  -3.710  0.5508E+00  0.7179E+01
  -3.700  0.5480E+00  0.7185E+01
  -3.690  0.5452E+00  0.7190E+01
  -3.680  0.5425E+00  0.7196E+01
  -3.670  0.5928E+00  0.7202E+01
  -3.660  0.5835E+00  0.7207E+01
  -3.650  0.5742E+00  0.7213E+01
  -3.640  0.5650E+00  0.7219E+01
  -3.630  0.5558E+00  0.7225E+01
  -3.620  0.5466E+00  0.7230E+01
  -3.610  0.5373E+00  0.7235E+01
  -3.600  0.5281E+00  0.7241E+01
  -3.590  0.6204E+00  0.7247E+01
  -3.580  0.5877E+00  0.7253E+01
  -3.570  0.5551E+00  0.7258E+01
  -3.560  0.5225E+00  0.7264E+01
  -3.550  0.4898E+00  0.7269E+01
  -3.540  0.4572E+00  0.7274E+01
  -3.530  0.4246E+00  0.7278E+01
  -3.520  0.3919E+00  0.7282E+01
  -3.510  0.3595E+00  0.7286E+01
  -3.500  0.3525E+00  0.7289E+01
  -3.490  0.3537E+00  0.7293E+01
  -3.480  0.3550E+00  0.7297E+01
  -3.470  0.3562E+00  0.7300E+01
  -3.460  0.3574E+00  0.7304E+01
  -3.450  0.3586E+00  0.7307E+01
  -3.440  0.3598E+00  0.7311E+01
  -3.430  0.3610E+00  0.7314E+01
  -3.420  0.3623E+00  0.7318E+01
  -3.410  0.3635E+00  0.7322E+01
  -3.400  0.3647E+00  0.7325E+01
  -3.390  0.3659E+00  0.7329E+01
  -3.380  0.3671E+00  0.7333E+01
  -3.370  0.3683E+00  0.7336E+01
  -3.360  0.3695E+00  0.7340E+01
  -3.350  0.3708E+00  0.7344E+01
  -3.340  0.3720E+00  0.7347E+01
  -3.330  0.3732E+00  0.7351E+01
  -3.320  0.3744E+00  0.7355E+01
  -3.310  0.3756E+00  0.7359E+01
  -3.300  0.3768E+00  0.7362E+01
  -3.290  0.3787E+00  0.7366E+01
  -3.280  0.3808E+00  0.7370E+01
  -3.270  0.3829E+00  0.7374E+01
  -3.260  0.3850E+00  0.7378E+01
  -3.250  0.3871E+00  0.7381E+01
  -3.240  0.3891E+00  0.7385E+01
  -3.230  0.3912E+00  0.7389E+01
  -3.220  0.3933E+00  0.7393E+01
  -3.210  0.3954E+00  0.7397E+01
  -3.200  0.3975E+00  0.7401E+01
  -3.190  0.3996E+00  0.7405E+01
  -3.180  0.4016E+00  0.7409E+01
  -3.170  0.4036E+00  0.7413E+01
  -3.160  0.4059E+00  0.7417E+01
  -3.150  0.4083E+00  0.7421E+01
  -3.140  0.4106E+00  0.7425E+01
  -3.130  0.4130E+00  0.7429E+01
  -3.120  0.4153E+00  0.7434E+01
  -3.110  0.4177E+00  0.7438E+01
  -3.100  0.4203E+00  0.7442E+01
  -3.090  0.4232E+00  0.7446E+01
  -3.080  0.4261E+00  0.7450E+01
  -3.070  0.4289E+00  0.7455E+01
  -3.060  0.4326E+00  0.7459E+01
  -3.050  0.4379E+00  0.7463E+01
  -3.040  0.4432E+00  0.7468E+01
  -3.030  0.4485E+00  0.7472E+01
  -3.020  0.4538E+00  0.7477E+01
  -3.010  0.4600E+00  0.7481E+01
  -3.000  0.4668E+00  0.7486E+01
  -2.990  0.4735E+00  0.7491E+01
  -2.980  0.4803E+00  0.7495E+01
  -2.970  0.4871E+00  0.7500E+01
  -2.960  0.4939E+00  0.7505E+01
  -2.950  0.5007E+00  0.7510E+01
  -2.940  0.5074E+00  0.7515E+01
  -2.930  0.5142E+00  0.7520E+01
  -2.920  0.5210E+00  0.7525E+01
  -2.910  0.5350E+00  0.7531E+01
  -2.900  0.5505E+00  0.7536E+01
  -2.890  0.5660E+00  0.7542E+01
  -2.880  0.5815E+00  0.7547E+01
  -2.870  0.5970E+00  0.7553E+01
  -2.860  0.6125E+00  0.7559E+01
  -2.850  0.6280E+00  0.7566E+01
  -2.840  0.1425E+01  0.7573E+01
  -2.830  0.1119E+01  0.7586E+01
  -2.820  0.8126E+00  0.7595E+01
  -2.810  0.5531E+00  0.7602E+01
  -2.800  0.5405E+00  0.7607E+01
  -2.790  0.5280E+00  0.7613E+01
  -2.780  0.5154E+00  0.7618E+01
  -2.770  0.5028E+00  0.7623E+01
  -2.760  0.4902E+00  0.7628E+01
  -2.750  0.4776E+00  0.7633E+01
  -2.740  0.4650E+00  0.7638E+01
  -2.730  0.4524E+00  0.7642E+01
  -2.720  0.4398E+00  0.7647E+01
  -2.710  0.4272E+00  0.7651E+01
  -2.700  0.4146E+00  0.7655E+01
  -2.690  0.4020E+00  0.7659E+01
  -2.680  0.3894E+00  0.7663E+01
  -2.670  0.3768E+00  0.7667E+01
  -2.660  0.3672E+00  0.7671E+01
  -2.650  0.3715E+00  0.7674E+01
  -2.640  0.3758E+00  0.7678E+01
  -2.630  0.3801E+00  0.7682E+01
  -2.620  0.3844E+00  0.7686E+01
  -2.610  0.3887E+00  0.7690E+01
  -2.600  0.3930E+00  0.7694E+01
  -2.590  0.3973E+00  0.7697E+01
  -2.580  0.4016E+00  0.7701E+01
  -2.570  0.4059E+00  0.7706E+01
  -2.560  0.4102E+00  0.7710E+01
  -2.550  0.4145E+00  0.7714E+01
  -2.540  0.3039E+00  0.7717E+01
  -2.530  0.3096E+00  0.7720E+01
  -2.520  0.3152E+00  0.7723E+01
  -2.510  0.3209E+00  0.7727E+01
  -2.500  0.3265E+00  0.7730E+01
  -2.490  0.3321E+00  0.7733E+01
  -2.480  0.3360E+00  0.7737E+01
  -2.470  0.3402E+00  0.7740E+01
  -2.460  0.3376E+00  0.7743E+01
  -2.450  0.3332E+00  0.7747E+01
  -2.440  0.3288E+00  0.7750E+01
  -2.430  0.3244E+00  0.7753E+01
  -2.420  0.3200E+00  0.7756E+01
  -2.410  0.3156E+00  0.7760E+01
  -2.400  0.3112E+00  0.7763E+01
  -2.390  0.3068E+00  0.7766E+01
  -2.380  0.3024E+00  0.7769E+01
  -2.370  0.2980E+00  0.7772E+01
  -2.360  0.2935E+00  0.7775E+01
  -2.350  0.2891E+00  0.7778E+01
  -2.340  0.2847E+00  0.7781E+01
  -2.330  0.2803E+00  0.7783E+01
  -2.320  0.2759E+00  0.7786E+01
  -2.310  0.2715E+00  0.7789E+01
  -2.300  0.2671E+00  0.7792E+01
  -2.290  0.2627E+00  0.7794E+01
  -2.280  0.2583E+00  0.7797E+01
  -2.270  0.2539E+00  0.7800E+01
  -2.260  0.2495E+00  0.7802E+01
  -2.250  0.2451E+00  0.7805E+01
  -2.240  0.2407E+00  0.7807E+01
  -2.230  0.2363E+00  0.7809E+01
  -2.220  0.2319E+00  0.7812E+01
  -2.210  0.2290E+00  0.7814E+01
  -2.200  0.2283E+00  0.7816E+01
  -2.190  0.2276E+00  0.7819E+01
  -2.180  0.2270E+00  0.7821E+01
  -2.170  0.2263E+00  0.7823E+01
  -2.160  0.2256E+00  0.7825E+01
  -2.150  0.2250E+00  0.7828E+01
  -2.140  0.2243E+00  0.7830E+01
  -2.130  0.2236E+00  0.7832E+01
  -2.120  0.2230E+00  0.7834E+01
  -2.110  0.2223E+00  0.7837E+01
  -2.100  0.2216E+00  0.7839E+01
  -2.090  0.2210E+00  0.7841E+01
  -2.080  0.2203E+00  0.7843E+01
  -2.070  0.2196E+00  0.7845E+01
  -2.060  0.2190E+00  0.7848E+01
  -2.050  0.2183E+00  0.7850E+01
  -2.040  0.2177E+00  0.7852E+01
  -2.030  0.2170E+00  0.7854E+01
  -2.020  0.2163E+00  0.7856E+01
  -2.010  0.2157E+00  0.7858E+01
  -2.000  0.2150E+00  0.7861E+01
  -1.990  0.2143E+00  0.7863E+01
  -1.980  0.2137E+00  0.7865E+01
  -1.970  0.2130E+00  0.7867E+01
  -1.960  0.2123E+00  0.7869E+01
  -1.950  0.1732E+00  0.7871E+01
  -1.940  0.1734E+00  0.7873E+01
  -1.930  0.1735E+00  0.7874E+01
  -1.920  0.1736E+00  0.7876E+01
  -1.910  0.1738E+00  0.7878E+01
  -1.900  0.1739E+00  0.7880E+01
  -1.890  0.1741E+00  0.7881E+01
  -1.880  0.1742E+00  0.7883E+01
  -1.870  0.1743E+00  0.7885E+01
  -1.860  0.1745E+00  0.7887E+01
  -1.850  0.1746E+00  0.7888E+01
  -1.840  0.1747E+00  0.7890E+01
  -1.830  0.1749E+00  0.7892E+01
  -1.820  0.1750E+00  0.7893E+01
  -1.810  0.1751E+00  0.7895E+01
  -1.800  0.1745E+00  0.7897E+01
  -1.790  0.1731E+00  0.7899E+01
  -1.780  0.1716E+00  0.7900E+01
  -1.770  0.1702E+00  0.7902E+01
  -1.760  0.1688E+00  0.7904E+01
  -1.750  0.1671E+00  0.7906E+01
  -1.740  0.1650E+00  0.7907E+01
  -1.730  0.1630E+00  0.7909E+01
  -1.720  0.1609E+00  0.7910E+01
  -1.710  0.1589E+00  0.7912E+01
  -1.700  0.1568E+00  0.7914E+01
  -1.690  0.1547E+00  0.7915E+01
  -1.680  0.1527E+00  0.7917E+01
  -1.670  0.1506E+00  0.7918E+01
  -1.660  0.1486E+00  0.7920E+01
  -1.650  0.1465E+00  0.7921E+01
  -1.640  0.1444E+00  0.7923E+01
  -1.630  0.1424E+00  0.7924E+01
  -1.620  0.1403E+00  0.7926E+01
  -1.610  0.1383E+00  0.7927E+01
  -1.600  0.1362E+00  0.7928E+01
  -1.590  0.1341E+00  0.7930E+01
  -1.580  0.1321E+00  0.7931E+01
  -1.570  0.1300E+00  0.7932E+01
  -1.560  0.1280E+00  0.7934E+01
  -1.550  0.1259E+00  0.7935E+01
  -1.540  0.1238E+00  0.7936E+01
  -1.530  0.1218E+00  0.7937E+01
  -1.520  0.1197E+00  0.7939E+01
  -1.510  0.1177E+00  0.7940E+01
  -1.500  0.1156E+00  0.7941E+01
  -1.490  0.1135E+00  0.7942E+01
  -1.480  0.1115E+00  0.7943E+01
  -1.470  0.1099E+00  0.7944E+01
  -1.460  0.1095E+00  0.7945E+01
  -1.450  0.1090E+00  0.7946E+01
  -1.440  0.1085E+00  0.7948E+01
  -1.430  0.1080E+00  0.7949E+01
  -1.420  0.1075E+00  0.7950E+01
  -1.410  0.1070E+00  0.7951E+01
  -1.400  0.1065E+00  0.7952E+01
  -1.390  0.1060E+00  0.7953E+01
  -1.380  0.1056E+00  0.7954E+01
  -1.370  0.1051E+00  0.7955E+01
  -1.360  0.1046E+00  0.7956E+01
  -1.350  0.1041E+00  0.7957E+01
  -1.340  0.1036E+00  0.7958E+01
  -1.330  0.1031E+00  0.7959E+01
  -1.320  0.1026E+00  0.7960E+01
  -1.310  0.1021E+00  0.7961E+01
  -1.300  0.1017E+00  0.7962E+01
  -1.290  0.1012E+00  0.7963E+01
  -1.280  0.1007E+00  0.7964E+01
  -1.270  0.1002E+00  0.7965E+01
  -1.260  0.9970E-01  0.7966E+01
  -1.250  0.9921E-01  0.7967E+01
  -1.240  0.9873E-01  0.7968E+01
  -1.230  0.9824E-01  0.7969E+01
  -1.220  0.9775E-01  0.7970E+01
  -1.210  0.9726E-01  0.7971E+01
  -1.200  0.9677E-01  0.7972E+01
  -1.190  0.9629E-01  0.7973E+01
  -1.180  0.9580E-01  0.7974E+01
  -1.170  0.9531E-01  0.7975E+01
  -1.160  0.9482E-01  0.7976E+01
  -1.150  0.9433E-01  0.7977E+01
  -1.140  0.9385E-01  0.7978E+01
  -1.130  0.9336E-01  0.7979E+01
  -1.120  0.6108E-01  0.7980E+01
  -1.110  0.6017E-01  0.7980E+01
  -1.100  0.5926E-01  0.7981E+01
  -1.090  0.5834E-01  0.7981E+01
  -1.080  0.5743E-01  0.7982E+01
  -1.070  0.5652E-01  0.7982E+01
  -1.060  0.5561E-01  0.7983E+01
  -1.050  0.5469E-01  0.7984E+01
  -1.040  0.5378E-01  0.7984E+01
  -1.030  0.5287E-01  0.7985E+01
  -1.020  0.5196E-01  0.7985E+01
  -1.010  0.5105E-01  0.7986E+01
  -1.000  0.5013E-01  0.7986E+01
  -0.990  0.4922E-01  0.7987E+01
  -0.980  0.4831E-01  0.7987E+01
  -0.970  0.4740E-01  0.7988E+01
  -0.960  0.4649E-01  0.7988E+01
  -0.950  0.4557E-01  0.7989E+01
  -0.940  0.4466E-01  0.7989E+01
  -0.930  0.4375E-01  0.7990E+01
  -0.920  0.4284E-01  0.7990E+01
  -0.910  0.4193E-01  0.7990E+01
  -0.900  0.4101E-01  0.7991E+01
  -0.890  0.4010E-01  0.7991E+01
  -0.880  0.3919E-01  0.7992E+01
  -0.870  0.3828E-01  0.7992E+01
  -0.860  0.3737E-01  0.7992E+01
  -0.850  0.3645E-01  0.7993E+01
  -0.840  0.3554E-01  0.7993E+01
  -0.830  0.3463E-01  0.7993E+01
  -0.820  0.3372E-01  0.7994E+01
  -0.810  0.3281E-01  0.7994E+01
  -0.800  0.3189E-01  0.7994E+01
  -0.790  0.3098E-01  0.7995E+01
  -0.780  0.3007E-01  0.7995E+01
  -0.770  0.2916E-01  0.7995E+01
  -0.760  0.2825E-01  0.7996E+01
  -0.750  0.2733E-01  0.7996E+01
  -0.740  0.2642E-01  0.7996E+01
  -0.730  0.2551E-01  0.7996E+01
  -0.720  0.2460E-01  0.7997E+01
  -0.710  0.2369E-01  0.7997E+01
  -0.700  0.2277E-01  0.7997E+01
  -0.690  0.2186E-01  0.7997E+01
  -0.680  0.2095E-01  0.7998E+01
  -0.670  0.2004E-01  0.7998E+01
  -0.660  0.1913E-01  0.7998E+01
  -0.650  0.1821E-01  0.7998E+01
  -0.640  0.1730E-01  0.7998E+01
  -0.630  0.1639E-01  0.7999E+01
  -0.620  0.1548E-01  0.7999E+01
  -0.610  0.1457E-01  0.7999E+01
  -0.600  0.1365E-01  0.7999E+01
  -0.590  0.1274E-01  0.7999E+01
  -0.580  0.1183E-01  0.7999E+01
  -0.570  0.1092E-01  0.7999E+01
  -0.560  0.1001E-01  0.7999E+01
  -0.550  0.9093E-02  0.8000E+01
  -0.540  0.8181E-02  0.8000E+01
  -0.530  0.7269E-02  0.8000E+01
  -0.520  0.6357E-02  0.8000E+01
  -0.510  0.5445E-02  0.8000E+01
  -0.500  0.4533E-02  0.8000E+01
  -0.490  0.3621E-02  0.8000E+01
  -0.480  0.2709E-02  0.8000E+01
  -0.470  0.1797E-02  0.8000E+01
  -0.460  0.8852E-03  0.8000E+01
  -0.450  0.2817E-04  0.8000E+01
  -0.440  0.9856E-03  0.8000E+01
  -0.430  0.1943E-02  0.8000E+01
  -0.420  0.2900E-02  0.8000E+01
  -0.410  0.3858E-02  0.8000E+01
  -0.400  0.4815E-02  0.8000E+01
  -0.390  0.5773E-02  0.8000E+01
  -0.380  0.6730E-02  0.8000E+01
  -0.370  0.7688E-02  0.8000E+01
  -0.360  0.8645E-02  0.8000E+01
  -0.350  0.9602E-02  0.8000E+01
  -0.340  0.1056E-01  0.8001E+01
  -0.330  0.1152E-01  0.8001E+01
  -0.320  0.1247E-01  0.8001E+01
  -0.310  0.1343E-01  0.8001E+01
  -0.300  0.1439E-01  0.8001E+01
  -0.290  0.1535E-01  0.8001E+01
  -0.280  0.1630E-01  0.8001E+01
  -0.270  0.1726E-01  0.8002E+01
  -0.260  0.1822E-01  0.8002E+01
  -0.250  0.1918E-01  0.8002E+01
  -0.240  0.2013E-01  0.8002E+01
  -0.230  0.2109E-01  0.8002E+01
  -0.220  0.2205E-01  0.8003E+01
  -0.210  0.2301E-01  0.8003E+01
  -0.200  0.2396E-01  0.8003E+01
  -0.190  0.2492E-01  0.8003E+01
  -0.180  0.2588E-01  0.8003E+01
  -0.170  0.2684E-01  0.8004E+01
  -0.160  0.2779E-01  0.8004E+01
  -0.150  0.2875E-01  0.8004E+01
  -0.140  0.2971E-01  0.8005E+01
  -0.130  0.3067E-01  0.8005E+01
  -0.120  0.3162E-01  0.8005E+01
  -0.110  0.3258E-01  0.8006E+01
  -0.100  0.3354E-01  0.8006E+01
  -0.090  0.3450E-01  0.8006E+01
  -0.080  0.3545E-01  0.8007E+01
  -0.070  0.3641E-01  0.8007E+01
  -0.060  0.3737E-01  0.8007E+01
  -0.050  0.3833E-01  0.8008E+01
  -0.040  0.3928E-01  0.8008E+01
  -0.030  0.4024E-01  0.8008E+01
  -0.020  0.4120E-01  0.8009E+01
  -0.010  0.4215E-01  0.8009E+01
   0.000  0.4311E-01  0.8010E+01
   0.010  0.4407E-01  0.8010E+01
   0.020  0.4503E-01  0.8011E+01
   0.030  0.4598E-01  0.8011E+01
   0.040  0.4694E-01  0.8012E+01
   0.050  0.4790E-01  0.8012E+01
   0.060  0.4886E-01  0.8012E+01
   0.070  0.4981E-01  0.8013E+01
   0.080  0.5077E-01  0.8013E+01
   0.090  0.5173E-01  0.8014E+01
   0.100  0.5269E-01  0.8014E+01
   0.110  0.5364E-01  0.8015E+01
   0.120  0.5460E-01  0.8016E+01
   0.130  0.5556E-01  0.8016E+01
   0.140  0.5652E-01  0.8017E+01
   0.150  0.5747E-01  0.8017E+01
   0.160  0.5843E-01  0.8018E+01
   0.170  0.5939E-01  0.8018E+01
   0.180  0.6035E-01  0.8019E+01
   0.190  0.6130E-01  0.8020E+01
   0.200  0.6226E-01  0.8020E+01
   0.210  0.1053E+00  0.8021E+01
   0.220  0.1056E+00  0.8022E+01
   0.230  0.1059E+00  0.8023E+01
   0.240  0.1062E+00  0.8024E+01
   0.250  0.1064E+00  0.8025E+01
   0.260  0.1067E+00  0.8026E+01
   0.270  0.1070E+00  0.8027E+01
   0.280  0.1073E+00  0.8028E+01
   0.290  0.1075E+00  0.8029E+01
   0.300  0.1078E+00  0.8030E+01
   0.310  0.1081E+00  0.8032E+01
   0.320  0.1084E+00  0.8033E+01
   0.330  0.1086E+00  0.8034E+01
   0.340  0.1089E+00  0.8035E+01
   0.350  0.1092E+00  0.8036E+01
   0.360  0.1095E+00  0.8037E+01
   0.370  0.1097E+00  0.8038E+01
   0.380  0.1100E+00  0.8039E+01
   0.390  0.1103E+00  0.8040E+01
   0.400  0.1106E+00  0.8041E+01
   0.410  0.1108E+00  0.8043E+01
   0.420  0.1111E+00  0.8044E+01
   0.430  0.1114E+00  0.8045E+01
   0.440  0.1117E+00  0.8046E+01
   0.450  0.1119E+00  0.8047E+01
   0.460  0.1122E+00  0.8048E+01
   0.470  0.1125E+00  0.8049E+01
   0.480  0.1128E+00  0.8050E+01
   0.490  0.1130E+00  0.8051E+01
   0.500  0.1139E+00  0.8053E+01
   0.510  0.1170E+00  0.8054E+01
   0.520  0.1200E+00  0.8055E+01
   0.530  0.1231E+00  0.8056E+01
   0.540  0.1261E+00  0.8057E+01
   0.550  0.1292E+00  0.8059E+01
   0.560  0.1322E+00  0.8060E+01
   0.570  0.1353E+00  0.8061E+01
   0.580  0.1383E+00  0.8063E+01
   0.590  0.1414E+00  0.8064E+01
   0.600  0.1444E+00  0.8066E+01
   0.610  0.1475E+00  0.8067E+01
   0.620  0.1505E+00  0.8068E+01
   0.630  0.1536E+00  0.8070E+01
   0.640  0.1567E+00  0.8072E+01
   0.650  0.1597E+00  0.8073E+01
   0.660  0.1628E+00  0.8075E+01
   0.670  0.1658E+00  0.8076E+01
   0.680  0.1689E+00  0.8078E+01
   0.690  0.1719E+00  0.8080E+01
   0.700  0.1750E+00  0.8081E+01
   0.710  0.1780E+00  0.8083E+01
   0.720  0.1811E+00  0.8085E+01
   0.730  0.1841E+00  0.8087E+01
   0.740  0.1872E+00  0.8089E+01
   0.750  0.1902E+00  0.8091E+01
   0.760  0.1933E+00  0.8093E+01
   0.770  0.1963E+00  0.8094E+01
   0.780  0.1994E+00  0.8096E+01
   0.790  0.2025E+00  0.8098E+01
   0.800  0.2055E+00  0.8101E+01
   0.810  0.2086E+00  0.8103E+01
   0.820  0.2116E+00  0.8105E+01
   0.830  0.2147E+00  0.8107E+01
   0.840  0.2164E+00  0.8109E+01
   0.850  0.2097E+00  0.8111E+01
   0.860  0.2023E+00  0.8113E+01
   0.870  0.1950E+00  0.8115E+01
   0.880  0.1877E+00  0.8117E+01
   0.890  0.3136E+00  0.8119E+01
   0.900  0.3066E+00  0.8122E+01
   0.910  0.2997E+00  0.8125E+01
   0.920  0.2927E+00  0.8128E+01
   0.930  0.2857E+00  0.8131E+01
   0.940  0.2787E+00  0.8134E+01
   0.950  0.2717E+00  0.8137E+01
   0.960  0.2647E+00  0.8139E+01
   0.970  0.2577E+00  0.8142E+01
   0.980  0.2507E+00  0.8144E+01
   0.990  0.2437E+00  0.8147E+01
   1.000  0.2367E+00  0.8149E+01
   1.010  0.2449E+00  0.8152E+01
   1.020  0.2543E+00  0.8154E+01
   1.030  0.2637E+00  0.8157E+01
   1.040  0.2731E+00  0.8159E+01
   1.050  0.2825E+00  0.8162E+01
   1.060  0.2919E+00  0.8165E+01
   1.070  0.3013E+00  0.8168E+01
   1.080  0.3107E+00  0.8171E+01
   1.090  0.3202E+00  0.8174E+01
   1.100  0.3296E+00  0.8178E+01
   1.110  0.3390E+00  0.8181E+01
   1.120  0.3484E+00  0.8184E+01
   1.130  0.3578E+00  0.8188E+01
   1.140  0.3672E+00  0.8191E+01
   1.150  0.3766E+00  0.8195E+01
   1.160  0.3860E+00  0.8199E+01
   1.170  0.3955E+00  0.8203E+01
   1.180  0.4049E+00  0.8207E+01
   1.190  0.6430E+00  0.8211E+01
   1.200  0.1400E+01  0.8222E+01
   1.210  0.5172E+00  0.8232E+01
   1.220  0.5357E+00  0.8237E+01
   1.230  0.5719E+00  0.8243E+01
   1.240  0.6464E+00  0.8249E+01
   1.250  0.7209E+00  0.8256E+01
   1.260  0.7954E+00  0.8263E+01
   1.270  0.8699E+00  0.8272E+01
   1.280  0.9444E+00  0.8281E+01
   1.290  0.1019E+01  0.8290E+01
   1.300  0.1093E+01  0.8301E+01
   1.310  0.6214E+00  0.8308E+01
   1.320  0.6069E+00  0.8314E+01
   1.330  0.5973E+00  0.8320E+01
   1.340  0.5876E+00  0.8326E+01
   1.350  0.5780E+00  0.8332E+01
   1.360  0.5684E+00  0.8337E+01
   1.370  0.5587E+00  0.8343E+01
   1.380  0.5491E+00  0.8348E+01
   1.390  0.5395E+00  0.8354E+01
   1.400  0.5298E+00  0.8359E+01
   1.410  0.5202E+00  0.8365E+01
   1.420  0.5106E+00  0.8370E+01
   1.430  0.5010E+00  0.8375E+01
   1.440  0.4913E+00  0.8380E+01
   1.450  0.4817E+00  0.8385E+01
   1.460  0.4721E+00  0.8389E+01
   1.470  0.4628E+00  0.8394E+01
   1.480  0.4537E+00  0.8399E+01
   1.490  0.4446E+00  0.8403E+01
   1.500  0.4355E+00  0.8407E+01
   1.510  0.4291E+00  0.8412E+01
   1.520  0.4238E+00  0.8416E+01
   1.530  0.4186E+00  0.8420E+01
   1.540  0.4134E+00  0.8424E+01
   1.550  0.4095E+00  0.8429E+01
   1.560  0.4062E+00  0.8433E+01
   1.570  0.4008E+00  0.8437E+01
   1.580  0.3984E+00  0.8441E+01
   1.590  0.3960E+00  0.8445E+01
   1.600  0.3936E+00  0.8449E+01
   1.610  0.3912E+00  0.8452E+01
   1.620  0.3888E+00  0.8456E+01
   1.630  0.3864E+00  0.8460E+01
   1.640  0.3839E+00  0.8464E+01
   1.650  0.3815E+00  0.8468E+01
   1.660  0.3791E+00  0.8472E+01
   1.670  0.3767E+00  0.8476E+01
   1.680  0.3743E+00  0.8479E+01
   1.690  0.3719E+00  0.8483E+01
   1.700  0.3695E+00  0.8487E+01
   1.710  0.3671E+00  0.8490E+01
   1.720  0.3647E+00  0.8494E+01
   1.730  0.3623E+00  0.8498E+01
   1.740  0.3599E+00  0.8501E+01
   1.750  0.3575E+00  0.8505E+01
   1.760  0.3551E+00  0.8508E+01
   1.770  0.3527E+00  0.8512E+01
   1.780  0.3503E+00  0.8515E+01
   1.790  0.3483E+00  0.8519E+01
   1.800  0.3465E+00  0.8522E+01
   1.810  0.3446E+00  0.8526E+01
   1.820  0.3428E+00  0.8529E+01
   1.830  0.3410E+00  0.8533E+01
   1.840  0.3391E+00  0.8536E+01
   1.850  0.3373E+00  0.8540E+01
   1.860  0.3355E+00  0.8543E+01
   1.870  0.3336E+00  0.8546E+01
   1.880  0.3318E+00  0.8550E+01
   1.890  0.3304E+00  0.8553E+01
   1.900  0.3292E+00  0.8556E+01
   1.910  0.3279E+00  0.8559E+01
   1.920  0.3267E+00  0.8563E+01
   1.930  0.3255E+00  0.8566E+01
   1.940  0.3243E+00  0.8569E+01
   1.950  0.3231E+00  0.8573E+01
   1.960  0.3218E+00  0.8576E+01
   1.970  0.3206E+00  0.8579E+01
   1.980  0.3194E+00  0.8582E+01
   1.990  0.3182E+00  0.8585E+01
   2.000  0.3169E+00  0.8589E+01
   2.010  0.3157E+00  0.8592E+01
   2.020  0.3145E+00  0.8595E+01
   2.030  0.3133E+00  0.8598E+01
   2.040  0.3121E+00  0.8601E+01
   2.050  0.3108E+00  0.8604E+01
   2.060  0.3096E+00  0.8607E+01
   2.070  0.3084E+00  0.8610E+01
   2.080  0.3073E+00  0.8613E+01
   2.090  0.3061E+00  0.8617E+01
   2.100  0.3050E+00  0.8620E+01
   2.110  0.3039E+00  0.8623E+01
   2.120  0.3027E+00  0.8626E+01
   2.130  0.3016E+00  0.8629E+01
   2.140  0.3004E+00  0.8632E+01
   2.150  0.2993E+00  0.8635E+01
   2.160  0.2982E+00  0.8638E+01
   2.170  0.2970E+00  0.8641E+01
   2.180  0.2959E+00  0.8644E+01
   2.190  0.2948E+00  0.8647E+01
   2.200  0.2936E+00  0.8650E+01
   2.210  0.2925E+00  0.8652E+01
   2.220  0.2914E+00  0.8655E+01
   2.230  0.2902E+00  0.8658E+01
   2.240  0.2891E+00  0.8661E+01
   2.250  0.2879E+00  0.8664E+01
   2.260  0.2868E+00  0.8667E+01
   2.270  0.2857E+00  0.8670E+01
   2.280  0.2846E+00  0.8673E+01
   2.290  0.2834E+00  0.8675E+01
   2.300  0.2821E+00  0.8678E+01
   2.310  0.2807E+00  0.8681E+01
   2.320  0.2793E+00  0.8684E+01
   2.330  0.2780E+00  0.8687E+01
   2.340  0.2767E+00  0.8689E+01
   2.350  0.2755E+00  0.8692E+01
   2.360  0.2742E+00  0.8695E+01
   2.370  0.2732E+00  0.8698E+01
   2.380  0.2726E+00  0.8700E+01
   2.390  0.2721E+00  0.8703E+01
   2.400  0.2715E+00  0.8706E+01
   2.410  0.2710E+00  0.8709E+01
   2.420  0.2704E+00  0.8711E+01
   2.430  0.2698E+00  0.8714E+01
   2.440  0.2693E+00  0.8717E+01
   2.450  0.2687E+00  0.8719E+01
   2.460  0.2682E+00  0.8722E+01
   2.470  0.2676E+00  0.8725E+01
   2.480  0.2670E+00  0.8727E+01
   2.490  0.2665E+00  0.8730E+01
   2.500  0.2659E+00  0.8733E+01
   2.510  0.2654E+00  0.8735E+01
   2.520  0.2648E+00  0.8738E+01
   2.530  0.2643E+00  0.8741E+01
   2.540  0.2637E+00  0.8743E+01
   2.550  0.2631E+00  0.8746E+01
   2.560  0.2626E+00  0.8749E+01
   2.570  0.2620E+00  0.8751E+01
   2.580  0.3094E+00  0.8754E+01
   2.590  0.3752E+00  0.8757E+01
   2.600  0.4411E+00  0.8762E+01
   2.610  0.5070E+00  0.8766E+01
   2.620  0.5728E+00  0.8772E+01
   2.630  0.4453E+00  0.8778E+01
   2.640  0.4503E+00  0.8782E+01
   2.650  0.4552E+00  0.8787E+01
   2.660  0.4602E+00  0.8791E+01
   2.670  0.4652E+00  0.8796E+01
   2.680  0.4702E+00  0.8800E+01
   2.690  0.4752E+00  0.8805E+01
   2.700  0.4802E+00  0.8810E+01
   2.710  0.4852E+00  0.8815E+01
   2.720  0.4902E+00  0.8820E+01
   2.730  0.4952E+00  0.8825E+01
   2.740  0.5002E+00  0.8830E+01
   2.750  0.4937E+00  0.8834E+01
   2.760  0.4863E+00  0.8839E+01
   2.770  0.4788E+00  0.8844E+01
   2.780  0.4714E+00  0.8849E+01
   2.790  0.4639E+00  0.8854E+01
   2.800  0.4593E+00  0.8858E+01
   2.810  0.4607E+00  0.8863E+01
   2.820  0.4622E+00  0.8867E+01
   2.830  0.4636E+00  0.8872E+01
   2.840  0.4651E+00  0.8877E+01
   2.850  0.4665E+00  0.8881E+01
   2.860  0.4680E+00  0.8886E+01
   2.870  0.4694E+00  0.8891E+01
   2.880  0.4709E+00  0.8895E+01
   2.890  0.4724E+00  0.8900E+01
   2.900  0.4738E+00  0.8905E+01
   2.910  0.4753E+00  0.8910E+01
   2.920  0.4767E+00  0.8914E+01
   2.930  0.4782E+00  0.8919E+01
   2.940  0.4796E+00  0.8924E+01
   2.950  0.4811E+00  0.8929E+01
   2.960  0.4825E+00  0.8934E+01
   2.970  0.4642E+00  0.8938E+01
   2.980  0.4632E+00  0.8943E+01
   2.990  0.4623E+00  0.8948E+01
   3.000  0.4613E+00  0.8952E+01
   3.010  0.4603E+00  0.8957E+01
   3.020  0.4593E+00  0.8961E+01
   3.030  0.4583E+00  0.8966E+01
   3.040  0.4572E+00  0.8971E+01
   3.050  0.4562E+00  0.8975E+01
   3.060  0.4552E+00  0.8980E+01
   3.070  0.4542E+00  0.8984E+01
   3.080  0.4536E+00  0.8989E+01
   3.090  0.4540E+00  0.8993E+01
   3.100  0.4544E+00  0.8998E+01
   3.110  0.4548E+00  0.9002E+01
   3.120  0.4552E+00  0.9007E+01
   3.130  0.4556E+00  0.9012E+01
   3.140  0.4560E+00  0.9016E+01
   3.150  0.4564E+00  0.9021E+01
   3.160  0.4568E+00  0.9025E+01
   3.170  0.4572E+00  0.9030E+01
   3.180  0.4576E+00  0.9034E+01
   3.190  0.4556E+00  0.9039E+01
   3.200  0.4563E+00  0.9043E+01
   3.210  0.4570E+00  0.9048E+01
   3.220  0.4577E+00  0.9053E+01
   3.230  0.4583E+00  0.9057E+01
   3.240  0.4590E+00  0.9062E+01
   3.250  0.4579E+00  0.9066E+01
   3.260  0.4550E+00  0.9071E+01
   3.270  0.4521E+00  0.9075E+01
   3.280  0.4492E+00  0.9080E+01
   3.290  0.4463E+00  0.9084E+01
   3.300  0.4434E+00  0.9089E+01
   3.310  0.4430E+00  0.9093E+01
   3.320  0.4428E+00  0.9098E+01
   3.330  0.4427E+00  0.9102E+01
   3.340  0.4426E+00  0.9107E+01
   3.350  0.4424E+00  0.9111E+01
   3.360  0.4423E+00  0.9115E+01
   3.370  0.4422E+00  0.9120E+01
   3.380  0.4421E+00  0.9124E+01
   3.390  0.4419E+00  0.9129E+01
   3.400  0.4418E+00  0.9133E+01
   3.410  0.4417E+00  0.9138E+01
   3.420  0.4416E+00  0.9142E+01
   3.430  0.4415E+00  0.9146E+01
   3.440  0.4413E+00  0.9151E+01
   3.450  0.4412E+00  0.9155E+01
   3.460  0.4411E+00  0.9160E+01
   3.470  0.4410E+00  0.9164E+01
   3.480  0.4413E+00  0.9168E+01
   3.490  0.4416E+00  0.9173E+01
   3.500  0.4419E+00  0.9177E+01
   3.510  0.4422E+00  0.9182E+01
   3.520  0.4425E+00  0.9186E+01
   3.530  0.4428E+00  0.9191E+01
   3.540  0.4431E+00  0.9195E+01
   3.550  0.4434E+00  0.9199E+01
   3.560  0.4437E+00  0.9204E+01
   3.570  0.4440E+00  0.9208E+01
   3.580  0.4443E+00  0.9213E+01
   3.590  0.4446E+00  0.9217E+01
   3.600  0.4449E+00  0.9222E+01
   3.610  0.4452E+00  0.9226E+01
   3.620  0.4455E+00  0.9231E+01
   3.630  0.4458E+00  0.9235E+01
   3.640  0.4392E+00  0.9239E+01
   3.650  0.4384E+00  0.9244E+01
   3.660  0.4376E+00  0.9248E+01
   3.670  0.4368E+00  0.9253E+01
   3.680  0.4361E+00  0.9257E+01
   3.690  0.4353E+00  0.9261E+01
   3.700  0.4344E+00  0.9266E+01
   3.710  0.4336E+00  0.9270E+01
   3.720  0.4328E+00  0.9274E+01
   3.730  0.4320E+00  0.9279E+01
   3.740  0.4312E+00  0.9283E+01
   3.750  0.4304E+00  0.9287E+01
   3.760  0.4303E+00  0.9292E+01
   3.770  0.4302E+00  0.9296E+01
   3.780  0.4301E+00  0.9300E+01
   3.790  0.4300E+00  0.9304E+01
   3.800  0.4299E+00  0.9309E+01
   3.810  0.4298E+00  0.9313E+01
   3.820  0.4297E+00  0.9317E+01
   3.830  0.4296E+00  0.9322E+01
   3.840  0.4295E+00  0.9326E+01
   3.850  0.4294E+00  0.9330E+01
   3.860  0.4293E+00  0.9335E+01
   3.870  0.4291E+00  0.9339E+01
   3.880  0.4290E+00  0.9343E+01
   3.890  0.4289E+00  0.9347E+01
   3.900  0.4288E+00  0.9352E+01
   3.910  0.4287E+00  0.9356E+01
   3.920  0.4286E+00  0.9360E+01
   3.930  0.4285E+00  0.9365E+01
   3.940  0.4284E+00  0.9369E+01
   3.950  0.4283E+00  0.9373E+01
   3.960  0.4282E+00  0.9377E+01
   3.970  0.4281E+00  0.9382E+01
   3.980  0.4281E+00  0.9386E+01
   3.990  0.4279E+00  0.9390E+01
   4.000  0.4277E+00  0.9395E+01
   4.010  0.4275E+00  0.9399E+01
   4.020  0.4273E+00  0.9403E+01
   4.030  0.4271E+00  0.9407E+01
   4.040  0.4269E+00  0.9412E+01
   4.050  0.4267E+00  0.9416E+01
   4.060  0.4265E+00  0.9420E+01
   4.070  0.4263E+00  0.9424E+01
   4.080  0.4261E+00  0.9429E+01
   4.090  0.4252E+00  0.9433E+01
   4.100  0.4238E+00  0.9437E+01
   4.110  0.4223E+00  0.9441E+01
   4.120  0.4209E+00  0.9446E+01
   4.130  0.4195E+00  0.9450E+01
   4.140  0.4181E+00  0.9454E+01
   4.150  0.4177E+00  0.9458E+01
   4.160  0.4175E+00  0.9462E+01
   4.170  0.4172E+00  0.9467E+01
   4.180  0.4169E+00  0.9471E+01
   4.190  0.4167E+00  0.9475E+01
   4.200  0.4164E+00  0.9479E+01
   4.210  0.4161E+00  0.9483E+01
   4.220  0.4683E+00  0.9488E+01
   4.230  0.5358E+00  0.9493E+01
   4.240  0.6034E+00  0.9498E+01
   4.250  0.6709E+00  0.9505E+01
   4.260  0.7384E+00  0.9512E+01
   4.270  0.6038E+00  0.9519E+01
   4.280  0.6092E+00  0.9525E+01
   4.290  0.6146E+00  0.9531E+01
   4.300  0.6200E+00  0.9537E+01
   4.310  0.6255E+00  0.9544E+01
   4.320  0.6311E+00  0.9550E+01
   4.330  0.6368E+00  0.9556E+01
   4.340  0.6425E+00  0.9563E+01
   4.350  0.6482E+00  0.9569E+01
   4.360  0.6538E+00  0.9576E+01
   4.370  0.6595E+00  0.9582E+01
   4.380  0.6632E+00  0.9589E+01
   4.390  0.6562E+00  0.9595E+01
   4.400  0.6491E+00  0.9602E+01
   4.410  0.6421E+00  0.9608E+01
   4.420  0.6351E+00  0.9615E+01
   4.430  0.6280E+00  0.9621E+01
   4.440  0.6265E+00  0.9627E+01
   4.450  0.6285E+00  0.9634E+01
   4.460  0.6305E+00  0.9640E+01
   4.470  0.6327E+00  0.9646E+01
   4.480  0.6349E+00  0.9653E+01
   4.490  0.6371E+00  0.9659E+01
   4.500  0.6394E+00  0.9665E+01
   4.510  0.6416E+00  0.9672E+01
   4.520  0.6438E+00  0.9678E+01
   4.530  0.6460E+00  0.9685E+01
   4.540  0.6482E+00  0.9691E+01
   4.550  0.6504E+00  0.9697E+01
   4.560  0.6526E+00  0.9704E+01
   4.570  0.6548E+00  0.9711E+01
   4.580  0.6571E+00  0.9717E+01
   4.590  0.6593E+00  0.9724E+01
   4.600  0.6429E+00  0.9730E+01
   4.610  0.6427E+00  0.9737E+01
   4.620  0.6426E+00  0.9743E+01
   4.630  0.6425E+00  0.9750E+01
   4.640  0.6423E+00  0.9756E+01
   4.650  0.6386E+00  0.9762E+01
   4.660  0.6379E+00  0.9769E+01
   4.670  0.6372E+00  0.9775E+01
   4.680  0.6364E+00  0.9782E+01
   4.690  0.6357E+00  0.9788E+01
   4.700  0.6350E+00  0.9794E+01
   4.710  0.6343E+00  0.9801E+01
   4.720  0.6350E+00  0.9807E+01
   4.730  0.6358E+00  0.9813E+01
   4.740  0.6365E+00  0.9820E+01
   4.750  0.6376E+00  0.9826E+01
   4.760  0.6405E+00  0.9832E+01
   4.770  0.6435E+00  0.9839E+01
   4.780  0.6466E+00  0.9845E+01
   4.790  0.6496E+00  0.9852E+01
   4.800  0.6527E+00  0.9858E+01
   4.810  0.6557E+00  0.9865E+01
   4.820  0.6588E+00  0.9871E+01
   4.830  0.6618E+00  0.9878E+01
   4.840  0.6649E+00  0.9885E+01
   4.850  0.6679E+00  0.9891E+01
   4.860  0.6709E+00  0.9898E+01
   4.870  0.6740E+00  0.9905E+01
   4.880  0.6756E+00  0.9911E+01
   4.890  0.6750E+00  0.9918E+01
   4.900  0.6744E+00  0.9925E+01
   4.910  0.6738E+00  0.9932E+01
   4.920  0.6732E+00  0.9938E+01
   4.930  0.6726E+00  0.9945E+01
   4.940  0.6746E+00  0.9952E+01
   4.950  0.6768E+00  0.9959E+01
   4.960  0.6791E+00  0.9965E+01
   4.970  0.7294E+00  0.9972E+01
   4.980  0.7426E+00  0.9980E+01
   4.990  0.8155E+00  0.9987E+01
   5.000  0.8884E+00  0.9996E+01
   5.010  0.9292E+00  0.1001E+02
   5.020  0.9187E+00  0.1001E+02
   5.030  0.9081E+00  0.1002E+02
   5.040  0.8976E+00  0.1003E+02
   5.050  0.8871E+00  0.1004E+02
   5.060  0.8765E+00  0.1005E+02
   5.070  0.8660E+00  0.1006E+02
   5.080  0.8555E+00  0.1007E+02
   5.090  0.8449E+00  0.1008E+02
   5.100  0.8346E+00  0.1008E+02
   5.110  0.8245E+00  0.1009E+02
   5.120  0.8144E+00  0.1010E+02
   5.130  0.8042E+00  0.1011E+02
   5.140  0.7941E+00  0.1012E+02
   5.150  0.7840E+00  0.1012E+02
   5.160  0.7739E+00  0.1013E+02
   5.170  0.7638E+00  0.1014E+02
   5.180  0.7537E+00  0.1015E+02
   5.190  0.7436E+00  0.1016E+02
   5.200  0.7335E+00  0.1016E+02
   5.210  0.7234E+00  0.1017E+02
   5.220  0.7133E+00  0.1018E+02
   5.230  0.7032E+00  0.1018E+02
   5.240  0.7354E+00  0.1019E+02
   5.250  0.7942E+00  0.1020E+02
   5.260  0.8501E+00  0.1021E+02
   5.270  0.8662E+00  0.1022E+02
   5.280  0.8889E+00  0.1022E+02
   5.290  0.7147E+00  0.1023E+02
   5.300  0.6742E+00  0.1024E+02
   5.310  0.6337E+00  0.1025E+02
   5.320  0.6133E+00  0.1025E+02
   5.330  0.6070E+00  0.1026E+02
   5.340  0.6006E+00  0.1027E+02
   5.350  0.5943E+00  0.1027E+02
   5.360  0.5880E+00  0.1028E+02
   5.370  0.5817E+00  0.1028E+02
   5.380  0.5762E+00  0.1029E+02
   5.390  0.5706E+00  0.1029E+02
   5.400  0.5636E+00  0.1030E+02
   5.410  0.5451E+00  0.1031E+02
   5.420  0.5266E+00  0.1031E+02
   5.430  0.5081E+00  0.1032E+02
   5.440  0.4896E+00  0.1032E+02
   5.450  0.4712E+00  0.1033E+02
   5.460  0.4583E+00  0.1033E+02
   5.470  0.4490E+00  0.1034E+02
   5.480  0.4480E+00  0.1034E+02
   5.490  0.4590E+00  0.1034E+02
   5.500  0.4709E+00  0.1035E+02
   5.510  0.4829E+00  0.1035E+02
   5.520  0.4948E+00  0.1036E+02
   5.530  0.5067E+00  0.1036E+02
   5.540  0.5186E+00  0.1037E+02
   5.550  0.5305E+00  0.1037E+02
   5.560  0.5425E+00  0.1038E+02
   5.570  0.5544E+00  0.1038E+02
   5.580  0.5663E+00  0.1039E+02
   5.590  0.5783E+00  0.1040E+02
   5.600  0.5905E+00  0.1040E+02
   5.610  0.6111E+00  0.1041E+02
   5.620  0.6160E+00  0.1041E+02
   5.630  0.6377E+00  0.1042E+02
   5.640  0.6594E+00  0.1043E+02
   5.650  0.6810E+00  0.1043E+02
   5.660  0.7027E+00  0.1044E+02
   5.670  0.7244E+00  0.1045E+02
   5.680  0.7461E+00  0.1046E+02
   5.690  0.7678E+00  0.1046E+02
   5.700  0.7894E+00  0.1047E+02
   5.710  0.8095E+00  0.1048E+02
   5.720  0.8295E+00  0.1049E+02
   5.730  0.8497E+00  0.1050E+02
   5.740  0.8713E+00  0.1050E+02
   5.750  0.8928E+00  0.1051E+02
   5.760  0.9108E+00  0.1052E+02
   5.770  0.9141E+00  0.1053E+02
   5.780  0.9173E+00  0.1054E+02
   5.790  0.9206E+00  0.1055E+02
   5.800  0.9238E+00  0.1056E+02
   5.810  0.9481E+00  0.1057E+02
   5.820  0.9803E+00  0.1058E+02
   5.830  0.1013E+01  0.1059E+02
   5.840  0.1045E+01  0.1060E+02
   5.850  0.1077E+01  0.1061E+02
   5.860  0.1109E+01  0.1062E+02
   5.870  0.1141E+01  0.1063E+02
   5.880  0.1173E+01  0.1064E+02
   5.890  0.1206E+01  0.1065E+02
   5.900  0.1236E+01  0.1067E+02
   5.910  0.1267E+01  0.1068E+02
   5.920  0.1305E+01  0.1069E+02
   5.930  0.1342E+01  0.1070E+02
   5.940  0.1377E+01  0.1072E+02
   5.950  0.1412E+01  0.1073E+02
   5.960  0.1450E+01  0.1075E+02
   5.970  0.1487E+01  0.1076E+02
   5.980  0.1525E+01  0.1078E+02
   5.990  0.1201E+01  0.1079E+02
   6.000  0.1199E+01  0.1080E+02
   6.010  0.1197E+01  0.1081E+02
   6.020  0.1195E+01  0.1083E+02
   6.030  0.1193E+01  0.1084E+02
   6.040  0.1191E+01  0.1085E+02
   6.050  0.1189E+01  0.1086E+02
   6.060  0.1187E+01  0.1087E+02
   6.070  0.1186E+01  0.1088E+02
   6.080  0.1184E+01  0.1090E+02
   6.090  0.1182E+01  0.1091E+02
   6.100  0.1172E+01  0.1092E+02
   6.110  0.1104E+01  0.1093E+02
   6.120  0.1036E+01  0.1094E+02
   6.130  0.9677E+00  0.1095E+02
   6.140  0.8997E+00  0.1096E+02
   6.150  0.8670E+00  0.1097E+02
   6.160  0.8583E+00  0.1098E+02
   6.170  0.8496E+00  0.1099E+02
   6.180  0.8409E+00  0.1100E+02
   6.190  0.8322E+00  0.1100E+02
   6.200  0.8235E+00  0.1101E+02
   6.210  0.8148E+00  0.1102E+02
   6.220  0.8061E+00  0.1103E+02
   6.230  0.7974E+00  0.1104E+02
   6.240  0.7887E+00  0.1104E+02
   6.250  0.6458E+00  0.1105E+02
   6.260  0.6049E+00  0.1106E+02
   6.270  0.5639E+00  0.1106E+02
   6.280  0.5229E+00  0.1107E+02
   6.290  0.4741E+00  0.1107E+02
   6.300  0.4574E+00  0.1108E+02
   6.310  0.4570E+00  0.1108E+02
   6.320  0.4566E+00  0.1109E+02
   6.330  0.4563E+00  0.1109E+02
   6.340  0.4559E+00  0.1110E+02
   6.350  0.4556E+00  0.1110E+02
   6.360  0.4552E+00  0.1111E+02
   6.370  0.4549E+00  0.1111E+02
   6.380  0.4546E+00  0.1112E+02
   6.390  0.4543E+00  0.1112E+02
   6.400  0.4548E+00  0.1112E+02
   6.410  0.4552E+00  0.1113E+02
   6.420  0.4557E+00  0.1113E+02
   6.430  0.4561E+00  0.1114E+02
   6.440  0.4566E+00  0.1114E+02
   6.450  0.4570E+00  0.1115E+02
   6.460  0.4575E+00  0.1115E+02
   6.470  0.4579E+00  0.1116E+02
   6.480  0.4584E+00  0.1116E+02
   6.490  0.4588E+00  0.1117E+02
   6.500  0.4592E+00  0.1117E+02
   6.510  0.4597E+00  0.1117E+02
   6.520  0.4601E+00  0.1118E+02
   6.530  0.4606E+00  0.1118E+02
   6.540  0.4610E+00  0.1119E+02
   6.550  0.4615E+00  0.1119E+02
   6.560  0.4619E+00  0.1120E+02
   6.570  0.4624E+00  0.1120E+02
   6.580  0.4628E+00  0.1121E+02
   6.590  0.4633E+00  0.1121E+02
   6.600  0.4637E+00  0.1122E+02
   6.610  0.4660E+00  0.1122E+02
   6.620  0.4694E+00  0.1123E+02
   6.630  0.4729E+00  0.1123E+02
   6.640  0.4763E+00  0.1124E+02
   6.650  0.4809E+00  0.1124E+02
   6.660  0.4855E+00  0.1124E+02
   6.670  0.6909E+00  0.1125E+02
   6.680  0.8381E+00  0.1126E+02
   6.690  0.9050E+00  0.1127E+02
   6.700  0.9719E+00  0.1128E+02
   6.710  0.1039E+01  0.1129E+02
   6.720  0.1106E+01  0.1130E+02
   6.730  0.1228E+01  0.1131E+02
   6.740  0.1370E+01  0.1132E+02
   6.750  0.1512E+01  0.1134E+02
   6.760  0.1654E+01  0.1135E+02
   6.770  0.1796E+01  0.1137E+02
   6.780  0.1831E+01  0.1139E+02
   6.790  0.1746E+01  0.1141E+02
   6.800  0.1661E+01  0.1142E+02
   6.810  0.1576E+01  0.1144E+02
   6.820  0.1490E+01  0.1145E+02
   6.830  0.3829E+01  0.1147E+02
   6.840  0.1721E+01  0.1149E+02
   6.850  0.1633E+01  0.1151E+02
   6.860  0.1545E+01  0.1153E+02
   6.870  0.1384E+01  0.1154E+02
   6.880  0.1219E+01  0.1155E+02
   6.890  0.1054E+01  0.1157E+02
   6.900  0.8889E+00  0.1158E+02
   6.910  0.7542E+00  0.1158E+02
   6.920  0.6754E+00  0.1159E+02
   6.930  0.7055E+00  0.1160E+02
   6.940  0.8014E+00  0.1161E+02
   6.950  0.8319E+00  0.1161E+02
   6.960  0.8566E+00  0.1162E+02
   6.970  0.8923E+00  0.1163E+02
   6.980  0.9311E+00  0.1164E+02
   6.990  0.9700E+00  0.1165E+02
   7.000  0.1197E+01  0.1166E+02
   7.010  0.1188E+01  0.1167E+02
   7.020  0.1180E+01  0.1168E+02
   7.030  0.1172E+01  0.1169E+02
   7.040  0.1164E+01  0.1171E+02
   7.050  0.1156E+01  0.1172E+02
   7.060  0.1148E+01  0.1173E+02
   7.070  0.1139E+01  0.1174E+02
   7.080  0.1131E+01  0.1175E+02
   7.090  0.1123E+01  0.1176E+02
   7.100  0.1117E+01  0.1177E+02
   7.110  0.1112E+01  0.1179E+02
   7.120  0.1007E+01  0.1180E+02
   7.130  0.9677E+00  0.1181E+02
   7.140  0.9282E+00  0.1182E+02
   7.150  0.8887E+00  0.1182E+02
   7.160  0.8599E+00  0.1183E+02
   7.170  0.8330E+00  0.1184E+02
   7.180  0.8178E+00  0.1185E+02
   7.190  0.8109E+00  0.1186E+02
   7.200  0.8039E+00  0.1187E+02
   7.210  0.7996E+00  0.1187E+02
   7.220  0.8756E+00  0.1188E+02
   7.230  0.9723E+00  0.1189E+02
   7.240  0.1069E+01  0.1190E+02
   7.250  0.1161E+01  0.1191E+02
   7.260  0.1182E+01  0.1193E+02
   7.270  0.1203E+01  0.1194E+02
   7.280  0.1313E+01  0.1195E+02
   7.290  0.1354E+01  0.1196E+02
   7.300  0.1394E+01  0.1198E+02
   7.310  0.1435E+01  0.1199E+02
   7.320  0.1475E+01  0.1201E+02
   7.330  0.1559E+01  0.1202E+02
   7.340  0.1655E+01  0.1204E+02
   7.350  0.1750E+01  0.1205E+02
   7.360  0.1846E+01  0.1207E+02
   7.370  0.1942E+01  0.1209E+02
   7.380  0.1703E+01  0.1211E+02
   7.390  0.1702E+01  0.1213E+02
   7.400  0.1702E+01  0.1214E+02
   7.410  0.1702E+01  0.1216E+02
   7.420  0.1701E+01  0.1218E+02
   7.430  0.1701E+01  0.1219E+02
   7.440  0.1701E+01  0.1221E+02
   7.450  0.1700E+01  0.1223E+02
   7.460  0.1700E+01  0.1225E+02
   7.470  0.1700E+01  0.1226E+02
   7.480  0.1699E+01  0.1228E+02
   7.490  0.1699E+01  0.1230E+02
   7.500  0.1433E+01  0.1231E+02
   7.510  0.1425E+01  0.1233E+02
   7.520  0.1416E+01  0.1234E+02
   7.530  0.1408E+01  0.1235E+02
   7.540  0.1398E+01  0.1237E+02
   7.550  0.1389E+01  0.1238E+02
   7.560  0.1380E+01  0.1240E+02
   7.570  0.1372E+01  0.1241E+02
   7.580  0.1363E+01  0.1242E+02
   7.590  0.1354E+01  0.1244E+02
   7.600  0.1345E+01  0.1245E+02
   7.610  0.1336E+01  0.1246E+02
   7.620  0.1328E+01  0.1248E+02
   7.630  0.1319E+01  0.1249E+02
   7.640  0.1308E+01  0.1250E+02
   7.650  0.1286E+01  0.1252E+02
   7.660  0.1267E+01  0.1253E+02
   7.670  0.1255E+01  0.1254E+02
   7.680  0.1243E+01  0.1255E+02
   7.690  0.1229E+01  0.1257E+02
   7.700  0.1215E+01  0.1258E+02
   7.710  0.1201E+01  0.1259E+02
   7.720  0.1192E+01  0.1260E+02
   7.730  0.1184E+01  0.1262E+02
   7.740  0.1177E+01  0.1263E+02
   7.750  0.1169E+01  0.1264E+02
   7.760  0.1161E+01  0.1265E+02
   7.770  0.1161E+01  0.1266E+02
   7.780  0.1172E+01  0.1267E+02
   7.790  0.1183E+01  0.1269E+02
   7.800  0.1194E+01  0.1270E+02
   7.810  0.1205E+01  0.1271E+02
   7.820  0.1216E+01  0.1272E+02
   7.830  0.1228E+01  0.1273E+02
   7.840  0.1239E+01  0.1275E+02
   7.850  0.1248E+01  0.1276E+02
   7.860  0.1349E+01  0.1277E+02
   7.870  0.1717E+01  0.1279E+02
   7.880  0.2087E+01  0.1281E+02
   7.890  0.1750E+01  0.1282E+02
   7.900  0.1892E+01  0.1284E+02
   7.910  0.2037E+01  0.1286E+02
   7.920  0.2183E+01  0.1288E+02
   7.930  0.2379E+01  0.1290E+02
   7.940  0.2394E+01  0.1293E+02
   7.950  0.2315E+01  0.1295E+02
   7.960  0.2247E+01  0.1298E+02
   7.970  0.2183E+01  0.1300E+02
   7.980  0.2134E+01  0.1302E+02
   7.990  0.2069E+01  0.1304E+02
   8.000  0.1992E+01  0.1306E+02
   8.010  0.1914E+01  0.1308E+02
   8.020  0.1836E+01  0.1310E+02
   8.030  0.1560E+01  0.1312E+02
   8.040  0.1422E+01  0.1313E+02
   8.050  0.1355E+01  0.1314E+02
   8.060  0.1339E+01  0.1316E+02
   8.070  0.1323E+01  0.1317E+02
   8.080  0.1307E+01  0.1318E+02
   8.090  0.1291E+01  0.1320E+02
   8.100  0.1275E+01  0.1321E+02
   8.110  0.1259E+01  0.1322E+02
   8.120  0.1242E+01  0.1323E+02
   8.130  0.1226E+01  0.1325E+02
   8.140  0.1210E+01  0.1326E+02
   8.150  0.1194E+01  0.1327E+02
   8.160  0.1178E+01  0.1328E+02
   8.170  0.1162E+01  0.1329E+02
   8.180  0.1146E+01  0.1331E+02
   8.190  0.1130E+01  0.1332E+02
   8.200  0.1114E+01  0.1333E+02
   8.210  0.1098E+01  0.1334E+02
   8.220  0.1082E+01  0.1335E+02
   8.230  0.1071E+01  0.1336E+02
   8.240  0.1066E+01  0.1337E+02
   8.250  0.1060E+01  0.1338E+02
   8.260  0.1055E+01  0.1339E+02
   8.270  0.1050E+01  0.1340E+02
   8.280  0.1045E+01  0.1341E+02
   8.290  0.1039E+01  0.1342E+02
   8.300  0.1034E+01  0.1344E+02
   8.310  0.1029E+01  0.1345E+02
   8.320  0.1024E+01  0.1346E+02
   8.330  0.1018E+01  0.1347E+02
   8.340  0.1013E+01  0.1348E+02
   8.350  0.1008E+01  0.1349E+02
   8.360  0.1003E+01  0.1350E+02
   8.370  0.9974E+00  0.1351E+02
   8.380  0.8185E+00  0.1351E+02
   8.390  0.8174E+00  0.1352E+02
   8.400  0.8162E+00  0.1353E+02
   8.410  0.8151E+00  0.1354E+02
   8.420  0.8139E+00  0.1355E+02
   8.430  0.8127E+00  0.1356E+02
   8.440  0.8116E+00  0.1356E+02
   8.450  0.8104E+00  0.1357E+02
   8.460  0.8040E+00  0.1358E+02
   8.470  0.8001E+00  0.1359E+02
   8.480  0.7961E+00  0.1360E+02
   8.490  0.7921E+00  0.1360E+02
   8.500  0.7902E+00  0.1361E+02
   8.510  0.7894E+00  0.1362E+02
   8.520  0.7893E+00  0.1363E+02
   8.530  0.7891E+00  0.1364E+02
   8.540  0.7890E+00  0.1364E+02
   8.550  0.7889E+00  0.1365E+02
   8.560  0.7887E+00  0.1366E+02
   8.570  0.7886E+00  0.1367E+02
   8.580  0.7885E+00  0.1367E+02
   8.590  0.7880E+00  0.1368E+02
   8.600  0.7833E+00  0.1369E+02
   8.610  0.7791E+00  0.1370E+02
   8.620  0.7749E+00  0.1371E+02
   8.630  0.7725E+00  0.1371E+02
   8.640  0.7709E+00  0.1372E+02
   8.650  0.7693E+00  0.1373E+02
   8.660  0.7678E+00  0.1374E+02
   8.670  0.7662E+00  0.1374E+02
   8.680  0.7647E+00  0.1375E+02
   8.690  0.7632E+00  0.1376E+02
   8.700  0.7620E+00  0.1377E+02
   8.710  0.7611E+00  0.1378E+02
   8.720  0.7601E+00  0.1378E+02
   8.730  0.7592E+00  0.1379E+02
   8.740  0.7582E+00  0.1380E+02
   8.750  0.7573E+00  0.1381E+02
   8.760  0.7563E+00  0.1381E+02
   8.770  0.7554E+00  0.1382E+02
   8.780  0.7545E+00  0.1383E+02
   8.790  0.7536E+00  0.1384E+02
   8.800  0.7529E+00  0.1384E+02
   8.810  0.7522E+00  0.1385E+02
   8.820  0.7510E+00  0.1386E+02
   8.830  0.7497E+00  0.1387E+02
   8.840  0.7485E+00  0.1387E+02
   8.850  0.7473E+00  0.1388E+02
   8.860  0.7460E+00  0.1389E+02
   8.870  0.7448E+00  0.1390E+02
   8.880  0.7435E+00  0.1390E+02
   8.890  0.7423E+00  0.1391E+02
   8.900  0.7411E+00  0.1392E+02
   8.910  0.7398E+00  0.1393E+02
   8.920  0.7386E+00  0.1393E+02
   8.930  0.7373E+00  0.1394E+02
   8.940  0.7361E+00  0.1395E+02
   8.950  0.7348E+00  0.1395E+02
   8.960  0.7336E+00  0.1396E+02
   8.970  0.7324E+00  0.1397E+02
   8.980  0.7311E+00  0.1398E+02
   8.990  0.7299E+00  0.1398E+02
   9.000  0.7286E+00  0.1399E+02
   9.010  0.7274E+00  0.1400E+02
   9.020  0.7261E+00  0.1401E+02
   9.030  0.7249E+00  0.1401E+02
   9.040  0.7270E+00  0.1402E+02
   9.050  0.7261E+00  0.1403E+02
   9.060  0.7252E+00  0.1404E+02
   9.070  0.7243E+00  0.1404E+02
   9.080  0.7234E+00  0.1405E+02
   9.090  0.7226E+00  0.1406E+02
   9.100  0.7218E+00  0.1406E+02
   9.110  0.7212E+00  0.1407E+02
   9.120  0.7205E+00  0.1408E+02
   9.130  0.7199E+00  0.1409E+02
   9.140  0.7193E+00  0.1409E+02
   9.150  0.7186E+00  0.1410E+02
   9.160  0.7180E+00  0.1411E+02
   9.170  0.7173E+00  0.1411E+02
   9.180  0.7170E+00  0.1412E+02
   9.190  0.7169E+00  0.1413E+02
   9.200  0.7167E+00  0.1414E+02
   9.210  0.7166E+00  0.1414E+02
   9.220  0.7164E+00  0.1415E+02
   9.230  0.7163E+00  0.1416E+02
   9.240  0.7161E+00  0.1416E+02
   9.250  0.7160E+00  0.1417E+02
   9.260  0.7158E+00  0.1418E+02
   9.270  0.7157E+00  0.1419E+02
   9.280  0.7155E+00  0.1419E+02
   9.290  0.7154E+00  0.1420E+02
   9.300  0.7152E+00  0.1421E+02
   9.310  0.7151E+00  0.1421E+02
   9.320  0.7149E+00  0.1422E+02
   9.330  0.7148E+00  0.1423E+02
   9.340  0.7147E+00  0.1424E+02
   9.350  0.7146E+00  0.1424E+02
   9.360  0.7142E+00  0.1425E+02
   9.370  0.7121E+00  0.1426E+02
   9.380  0.7101E+00  0.1426E+02
   9.390  0.7104E+00  0.1427E+02
   9.400  0.7107E+00  0.1428E+02
   9.410  0.7111E+00  0.1429E+02
   9.420  0.7114E+00  0.1429E+02
   9.430  0.7117E+00  0.1430E+02
   9.440  0.7126E+00  0.1431E+02
   9.450  0.7143E+00  0.1431E+02
   9.460  0.7161E+00  0.1432E+02
   9.470  0.7173E+00  0.1433E+02
   9.480  0.7166E+00  0.1434E+02
   9.490  0.7181E+00  0.1434E+02
   9.500  0.7196E+00  0.1435E+02
   9.510  0.7212E+00  0.1436E+02
   9.520  0.7227E+00  0.1436E+02
   9.530  0.7243E+00  0.1437E+02
   9.540  0.7259E+00  0.1438E+02
   9.550  0.7274E+00  0.1439E+02
   9.560  0.7290E+00  0.1439E+02
   9.570  0.7300E+00  0.1440E+02
   9.580  0.7302E+00  0.1441E+02
   9.590  0.7303E+00  0.1442E+02
   9.600  0.7305E+00  0.1442E+02
   9.610  0.7401E+00  0.1443E+02
   9.620  0.7414E+00  0.1444E+02
   9.630  0.7428E+00  0.1445E+02
   9.640  0.7441E+00  0.1445E+02
   9.650  0.7439E+00  0.1446E+02
   9.660  0.7430E+00  0.1447E+02
   9.670  0.7422E+00  0.1447E+02
   9.680  0.7413E+00  0.1448E+02
   9.690  0.7404E+00  0.1449E+02
   9.700  0.7396E+00  0.1450E+02
   9.710  0.7387E+00  0.1450E+02
   9.720  0.7374E+00  0.1451E+02
   9.730  0.7357E+00  0.1452E+02
   9.740  0.7357E+00  0.1453E+02
   9.750  0.7377E+00  0.1453E+02
   9.760  0.7398E+00  0.1454E+02
   9.770  0.7419E+00  0.1455E+02
   9.780  0.7439E+00  0.1456E+02
   9.790  0.7460E+00  0.1456E+02
   9.800  0.7480E+00  0.1457E+02
   9.810  0.7501E+00  0.1458E+02
   9.820  0.7521E+00  0.1459E+02
   9.830  0.7516E+00  0.1459E+02
   9.840  0.7507E+00  0.1460E+02
   9.850  0.7499E+00  0.1461E+02
   9.860  0.7490E+00  0.1462E+02
   9.870  0.7482E+00  0.1462E+02
   9.880  0.7474E+00  0.1463E+02
   9.890  0.7465E+00  0.1464E+02
   9.900  0.7457E+00  0.1465E+02
   9.910  0.7449E+00  0.1465E+02
   9.920  0.7440E+00  0.1466E+02
   9.930  0.7432E+00  0.1467E+02
   9.940  0.7424E+00  0.1468E+02
   9.950  0.7415E+00  0.1468E+02
   9.960  0.7408E+00  0.1469E+02
   9.970  0.8077E+00  0.1470E+02
   9.980  0.8047E+00  0.1471E+02
   9.990  0.8017E+00  0.1471E+02
  10.000  0.7987E+00  0.1472E+02
  10.010  0.7957E+00  0.1473E+02
  10.020  0.7928E+00  0.1474E+02
  10.030  0.7898E+00  0.1475E+02
  10.040  0.7868E+00  0.1475E+02
  10.050  0.7838E+00  0.1476E+02
  10.060  0.7809E+00  0.1477E+02
  10.070  0.7796E+00  0.1478E+02
  10.080  0.7782E+00  0.1479E+02
  10.090  0.7769E+00  0.1479E+02
  10.100  0.7756E+00  0.1480E+02
  10.110  0.7742E+00  0.1481E+02
  10.120  0.7729E+00  0.1482E+02
  10.130  0.7716E+00  0.1482E+02
  10.140  0.7702E+00  0.1483E+02
  10.150  0.7689E+00  0.1484E+02
  10.160  0.7876E+00  0.1485E+02
  10.170  0.8396E+00  0.1486E+02
  10.180  0.8917E+00  0.1486E+02
  10.190  0.9437E+00  0.1487E+02
  10.200  0.9958E+00  0.1488E+02
  10.210  0.1048E+01  0.1489E+02
  10.220  0.1099E+01  0.1490E+02
  10.230  0.1151E+01  0.1492E+02
  10.240  0.1204E+01  0.1493E+02
  10.250  0.1150E+01  0.1494E+02
  10.260  0.1154E+01  0.1495E+02
  10.270  0.1147E+01  0.1496E+02
  10.280  0.1221E+01  0.1497E+02
  10.290  0.1211E+01  0.1499E+02
  10.300  0.1201E+01  0.1500E+02
  10.310  0.1191E+01  0.1501E+02
  10.320  0.1176E+01  0.1502E+02
  10.330  0.1158E+01  0.1503E+02
  10.340  0.1139E+01  0.1505E+02
  10.350  0.1121E+01  0.1506E+02
  10.360  0.1103E+01  0.1507E+02
  10.370  0.1085E+01  0.1508E+02
  10.380  0.1067E+01  0.1509E+02
  10.390  0.1049E+01  0.1510E+02
  10.400  0.1031E+01  0.1511E+02
  10.410  0.1013E+01  0.1512E+02
  10.420  0.9945E+00  0.1513E+02
  10.430  0.9762E+00  0.1514E+02
  10.440  0.9599E+00  0.1515E+02
  10.450  0.9961E+00  0.1516E+02
  10.460  0.1032E+01  0.1517E+02
  10.470  0.1031E+01  0.1518E+02
  10.480  0.1014E+01  0.1519E+02
  10.490  0.9969E+00  0.1520E+02
  10.500  0.9804E+00  0.1521E+02
  10.510  0.9646E+00  0.1522E+02
  10.520  0.9487E+00  0.1523E+02
  10.530  0.9329E+00  0.1524E+02
  10.540  0.9171E+00  0.1525E+02
  10.550  0.9013E+00  0.1526E+02
  10.560  0.8855E+00  0.1527E+02
  10.570  0.8697E+00  0.1528E+02
  10.580  0.6569E+00  0.1528E+02
  10.590  0.6556E+00  0.1529E+02
  10.600  0.6542E+00  0.1530E+02
  10.610  0.6529E+00  0.1530E+02
  10.620  0.6515E+00  0.1531E+02
  10.630  0.6510E+00  0.1532E+02
  10.640  0.6541E+00  0.1532E+02
  10.650  0.6594E+00  0.1533E+02
  10.660  0.6628E+00  0.1534E+02
  10.670  0.6599E+00  0.1534E+02
  10.680  0.6570E+00  0.1535E+02
  10.690  0.6541E+00  0.1536E+02
  10.700  0.6512E+00  0.1536E+02
  10.710  0.6477E+00  0.1537E+02
  10.720  0.6457E+00  0.1538E+02
  10.730  0.6437E+00  0.1538E+02
  10.740  0.6418E+00  0.1539E+02
  10.750  0.6398E+00  0.1539E+02
  10.760  0.6379E+00  0.1540E+02
  10.770  0.6359E+00  0.1541E+02
  10.780  0.6339E+00  0.1541E+02
  10.790  0.7461E+00  0.1542E+02
  10.800  0.7754E+00  0.1543E+02
  10.810  0.7995E+00  0.1544E+02
  10.820  0.8236E+00  0.1544E+02
  10.830  0.8477E+00  0.1545E+02
  10.840  0.8718E+00  0.1546E+02
  10.850  0.8904E+00  0.1547E+02
  10.860  0.9004E+00  0.1548E+02
  10.870  0.8854E+00  0.1549E+02
  10.880  0.8672E+00  0.1550E+02
  10.890  0.8490E+00  0.1551E+02
  10.900  0.8308E+00  0.1551E+02
  10.910  0.9082E+00  0.1552E+02
  10.920  0.8918E+00  0.1553E+02
  10.930  0.8754E+00  0.1554E+02
  10.940  0.8589E+00  0.1555E+02
  10.950  0.8425E+00  0.1556E+02
  10.960  0.8261E+00  0.1557E+02
  10.970  0.8097E+00  0.1557E+02
  10.980  0.7933E+00  0.1558E+02
  10.990  0.7769E+00  0.1559E+02
  11.000  0.7605E+00  0.1560E+02
  11.010  0.7440E+00  0.1561E+02
  11.020  0.7276E+00  0.1561E+02
  11.030  0.7112E+00  0.1562E+02
  11.040  0.6948E+00  0.1563E+02
  11.050  0.6784E+00  0.1563E+02
  11.060  0.6620E+00  0.1564E+02
  11.070  0.6455E+00  0.1565E+02
  11.080  0.6305E+00  0.1565E+02
  11.090  0.6185E+00  0.1566E+02
  11.100  0.6065E+00  0.1567E+02
  11.110  0.5945E+00  0.1567E+02
  11.120  0.5825E+00  0.1568E+02
  11.130  0.5709E+00  0.1568E+02
  11.140  0.5592E+00  0.1569E+02
  11.150  0.5475E+00  0.1569E+02
  11.160  0.5358E+00  0.1570E+02
  11.170  0.5241E+00  0.1571E+02
  11.180  0.5124E+00  0.1571E+02
  11.190  0.5008E+00  0.1572E+02
  11.200  0.4891E+00  0.1572E+02
  11.210  0.4866E+00  0.1573E+02
  11.220  0.4875E+00  0.1573E+02
  11.230  0.4884E+00  0.1574E+02
  11.240  0.4894E+00  0.1574E+02
  11.250  0.4903E+00  0.1575E+02
  11.260  0.4149E+00  0.1575E+02
  11.270  0.4200E+00  0.1575E+02
  11.280  0.4251E+00  0.1576E+02
  11.290  0.4301E+00  0.1576E+02
  11.300  0.4352E+00  0.1577E+02
  11.310  0.4403E+00  0.1577E+02
  11.320  0.2138E+00  0.1577E+02
  11.330  0.2129E+00  0.1578E+02
  11.340  0.2121E+00  0.1578E+02
  11.350  0.2112E+00  0.1578E+02
  11.360  0.2104E+00  0.1578E+02
  11.370  0.2095E+00  0.1578E+02
  11.380  0.2087E+00  0.1579E+02
  11.390  0.2078E+00  0.1579E+02
  11.400  0.2070E+00  0.1579E+02
  11.410  0.2061E+00  0.1579E+02
  11.420  0.2053E+00  0.1580E+02
  11.430  0.2044E+00  0.1580E+02
  11.440  0.2035E+00  0.1580E+02
  11.450  0.2027E+00  0.1580E+02
  11.460  0.2018E+00  0.1580E+02
  11.470  0.2010E+00  0.1581E+02
  11.480  0.2001E+00  0.1581E+02
  11.490  0.1993E+00  0.1581E+02
  11.500  0.1984E+00  0.1581E+02
  11.510  0.1976E+00  0.1581E+02
  11.520  0.1967E+00  0.1582E+02
  11.530  0.1959E+00  0.1582E+02
  11.540  0.1950E+00  0.1582E+02
  11.550  0.1942E+00  0.1582E+02
  11.560  0.1933E+00  0.1582E+02
  11.570  0.1925E+00  0.1582E+02
  11.580  0.1916E+00  0.1583E+02
  11.590  0.1908E+00  0.1583E+02
  11.600  0.1899E+00  0.1583E+02
  11.610  0.1890E+00  0.1583E+02
  11.620  0.1882E+00  0.1583E+02
  11.630  0.1873E+00  0.1584E+02
  11.640  0.2078E+00  0.1584E+02
  11.650  0.2406E+00  0.1584E+02
  11.660  0.2733E+00  0.1584E+02
  11.670  0.3061E+00  0.1585E+02
  11.680  0.3388E+00  0.1585E+02
  11.690  0.3715E+00  0.1585E+02
  11.700  0.4043E+00  0.1586E+02
  11.710  0.1833E+00  0.1586E+02
  11.720  0.1821E+00  0.1586E+02
  11.730  0.1820E+00  0.1586E+02
  11.740  0.1945E+00  0.1587E+02
  11.750  0.1970E+00  0.1587E+02
  11.760  0.1995E+00  0.1587E+02
  11.770  0.2021E+00  0.1587E+02
  11.780  0.1976E+00  0.1587E+02
  11.790  0.1959E+00  0.1588E+02
  11.800  0.1942E+00  0.1588E+02
  11.810  0.1926E+00  0.1588E+02
  11.820  0.1909E+00  0.1588E+02
  11.830  0.1892E+00  0.1588E+02
  11.840  0.1876E+00  0.1589E+02
  11.850  0.1859E+00  0.1589E+02
  11.860  0.1842E+00  0.1589E+02
  11.870  0.1826E+00  0.1589E+02
  11.880  0.1809E+00  0.1589E+02
  11.890  0.1792E+00  0.1589E+02
  11.900  0.1776E+00  0.1590E+02
  11.910  0.1759E+00  0.1590E+02
  11.920  0.1742E+00  0.1590E+02
  11.930  0.1725E+00  0.1590E+02
  11.940  0.1709E+00  0.1590E+02
  11.950  0.1692E+00  0.1590E+02
  11.960  0.1675E+00  0.1591E+02
  11.970  0.1659E+00  0.1591E+02
  11.980  0.1642E+00  0.1591E+02
  11.990  0.1625E+00  0.1591E+02
  12.000  0.1609E+00  0.1591E+02
  12.010  0.1592E+00  0.1591E+02
  12.020  0.1575E+00  0.1592E+02
  12.030  0.1559E+00  0.1592E+02
  12.040  0.1542E+00  0.1592E+02
  12.050  0.1525E+00  0.1592E+02
  12.060  0.1508E+00  0.1592E+02
  12.070  0.1492E+00  0.1592E+02
  12.080  0.1475E+00  0.1593E+02
  12.090  0.1458E+00  0.1593E+02
  12.100  0.1442E+00  0.1593E+02
  12.110  0.1425E+00  0.1593E+02
  12.120  0.1408E+00  0.1593E+02
  12.130  0.1392E+00  0.1593E+02
  12.140  0.1375E+00  0.1593E+02
  12.150  0.1358E+00  0.1594E+02
  12.160  0.1341E+00  0.1594E+02
  12.170  0.1325E+00  0.1594E+02
  12.180  0.1308E+00  0.1594E+02
  12.190  0.1291E+00  0.1594E+02
  12.200  0.1275E+00  0.1594E+02
  12.210  0.1258E+00  0.1594E+02
  12.220  0.1241E+00  0.1594E+02
  12.230  0.1225E+00  0.1595E+02
  12.240  0.1208E+00  0.1595E+02
  12.250  0.1191E+00  0.1595E+02
  12.260  0.1175E+00  0.1595E+02
  12.270  0.1158E+00  0.1595E+02
  12.280  0.1141E+00  0.1595E+02
  12.290  0.1124E+00  0.1595E+02
  12.300  0.1108E+00  0.1595E+02
  12.310  0.1091E+00  0.1595E+02
  12.320  0.1074E+00  0.1596E+02
  12.330  0.1058E+00  0.1596E+02
  12.340  0.1041E+00  0.1596E+02
  12.350  0.1024E+00  0.1596E+02
  12.360  0.1008E+00  0.1596E+02
  12.370  0.9909E-01  0.1596E+02
  12.380  0.9742E-01  0.1596E+02
  12.390  0.4268E+00  0.1596E+02
  12.400  0.8023E+00  0.1597E+02
  12.410  0.1178E+01  0.1598E+02
  12.420  0.2483E+00  0.1599E+02
  12.430  0.2234E+00  0.1599E+02
  12.440  0.1985E+00  0.1599E+02
  12.450  0.1737E+00  0.1599E+02
  12.460  0.1488E+00  0.1600E+02
  12.470  0.1239E+00  0.1600E+02
  12.480  0.9897E-01  0.1600E+02
  12.490  0.7407E-01  0.1600E+02
  12.500  0.4918E-01  0.1600E+02
  12.510  0.2428E-01  0.1600E+02
  12.520  0.0000E+00  0.1600E+02
  12.530  0.0000E+00  0.1600E+02
  12.540  0.0000E+00  0.1600E+02
  12.550  0.0000E+00  0.1600E+02
  12.560  0.0000E+00  0.1600E+02
  12.570  0.0000E+00  0.1600E+02
  12.580  0.0000E+00  0.1600E+02
  12.590  0.0000E+00  0.1600E+02
  12.600  0.0000E+00  0.1600E+02
  12.610  0.0000E+00  0.1600E+02
  12.620  0.0000E+00  0.1600E+02
  12.630  0.0000E+00  0.1600E+02
  12.640  0.0000E+00  0.1600E+02
  12.650  0.0000E+00  0.1600E+02
  12.660  0.0000E+00  0.1600E+02
  12.670  0.0000E+00  0.1600E+02
  12.680  0.0000E+00  0.1600E+02
  12.690  0.0000E+00  0.1600E+02
  12.700  0.0000E+00  0.1600E+02
  12.710  0.0000E+00  0.1600E+02
  12.720  0.0000E+00  0.1600E+02
  12.730  0.0000E+00  0.1600E+02
  12.740  0.0000E+00  0.1600E+02
  12.750  0.0000E+00  0.1600E+02
  12.760  0.0000E+00  0.1600E+02
  12.770  0.0000E+00  0.1600E+02
  12.780  0.0000E+00  0.1600E+02
  12.790  0.0000E+00  0.1600E+02
  12.800  0.0000E+00  0.1600E+02
  12.810  0.0000E+00  0.1600E+02
  12.820  0.0000E+00  0.1600E+02
  12.830  0.0000E+00  0.1600E+02
  12.840  0.0000E+00  0.1600E+02
  12.850  0.0000E+00  0.1600E+02
  12.860  0.0000E+00  0.1600E+02
  12.870  0.0000E+00  0.1600E+02
  12.880  0.0000E+00  0.1600E+02
  12.890  0.0000E+00  0.1600E+02
  12.900  0.0000E+00  0.1600E+02
  12.910  0.0000E+00  0.1600E+02
  12.920  0.0000E+00  0.1600E+02
  12.930  0.0000E+00  0.1600E+02
  12.940  0.0000E+00  0.1600E+02
  12.950  0.0000E+00  0.1600E+02
  12.960  0.0000E+00  0.1600E+02
  12.970  0.0000E+00  0.1600E+02
  12.980  0.0000E+00  0.1600E+02
  12.990  0.0000E+00  0.1600E+02
  13.000  0.0000E+00  0.1600E+02
  13.010  0.0000E+00  0.1600E+02
  13.020  0.0000E+00  0.1600E+02
  13.030  0.0000E+00  0.1600E+02
  13.040  0.0000E+00  0.1600E+02
  13.050  0.0000E+00  0.1600E+02
  13.060  0.0000E+00  0.1600E+02
  13.070  0.0000E+00  0.1600E+02
  13.080  0.0000E+00  0.1600E+02
  13.090  0.0000E+00  0.1600E+02
  13.100  0.0000E+00  0.1600E+02
  13.110  0.0000E+00  0.1600E+02
  13.120  0.0000E+00  0.1600E+02
  13.130  0.0000E+00  0.1600E+02
  13.140  0.0000E+00  0.1600E+02
  13.150  0.0000E+00  0.1600E+02
  13.160  0.0000E+00  0.1600E+02
  13.170  0.0000E+00  0.1600E+02
  13.180  0.0000E+00  0.1600E+02
  13.190  0.0000E+00  0.1600E+02
  13.200  0.0000E+00  0.1600E+02
  13.210  0.0000E+00  0.1600E+02
  13.220  0.0000E+00  0.1600E+02
  13.230  0.0000E+00  0.1600E+02
  13.240  0.0000E+00  0.1600E+02
  13.250  0.0000E+00  0.1600E+02
  13.260  0.0000E+00  0.1600E+02
  13.270  0.0000E+00  0.1600E+02
  13.280  0.0000E+00  0.1600E+02
  13.290  0.0000E+00  0.1600E+02
  13.300  0.0000E+00  0.1600E+02
  13.310  0.0000E+00  0.1600E+02
  13.320  0.0000E+00  0.1600E+02
  13.330  0.0000E+00  0.1600E+02
  13.340  0.0000E+00  0.1600E+02
  13.350  0.0000E+00  0.1600E+02
  13.360  0.0000E+00  0.1600E+02
  13.370  0.0000E+00  0.1600E+02
  13.380  0.0000E+00  0.1600E+02
  13.390  0.0000E+00  0.1600E+02
  13.400  0.0000E+00  0.1600E+02
  13.410  0.0000E+00  0.1600E+02
  13.420  0.0000E+00  0.1600E+02
  13.430  0.0000E+00  0.1600E+02
  13.440  0.0000E+00  0.1600E+02
  13.450  0.0000E+00  0.1600E+02
  13.460  0.0000E+00  0.1600E+02
  13.470  0.0000E+00  0.1600E+02
  13.480  0.0000E+00  0.1600E+02
  13.490  0.0000E+00  0.1600E+02
  13.500  0.0000E+00  0.1600E+02
  13.510  0.0000E+00  0.1600E+02
  13.520  0.0000E+00  0.1600E+02
  13.530  0.0000E+00  0.1600E+02
  13.540  0.0000E+00  0.1600E+02
  13.550  0.0000E+00  0.1600E+02
  13.560  0.0000E+00  0.1600E+02
  13.570  0.0000E+00  0.1600E+02
  13.580  0.0000E+00  0.1600E+02
  13.590  0.0000E+00  0.1600E+02
  13.600  0.0000E+00  0.1600E+02
  13.610  0.0000E+00  0.1600E+02
  13.620  0.0000E+00  0.1600E+02
  13.630  0.0000E+00  0.1600E+02
  13.640  0.0000E+00  0.1600E+02
  13.650  0.0000E+00  0.1600E+02
  13.660  0.0000E+00  0.1600E+02
  13.670  0.0000E+00  0.1600E+02
  13.680  0.0000E+00  0.1600E+02
  13.690  0.0000E+00  0.1600E+02
  13.700  0.0000E+00  0.1600E+02
  13.710  0.0000E+00  0.1600E+02
  13.720  0.0000E+00  0.1600E+02
  13.730  0.0000E+00  0.1600E+02
  13.740  0.0000E+00  0.1600E+02
  13.750  0.0000E+00  0.1600E+02
  13.760  0.0000E+00  0.1600E+02
  13.770  0.0000E+00  0.1600E+02
  13.780  0.0000E+00  0.1600E+02
  13.790  0.0000E+00  0.1600E+02
  13.800  0.0000E+00  0.1600E+02
  13.810  0.0000E+00  0.1600E+02
  13.820  0.0000E+00  0.1600E+02
  13.830  0.0000E+00  0.1600E+02
  13.840  0.0000E+00  0.1600E+02
  13.850  0.0000E+00  0.1600E+02
  13.860  0.0000E+00  0.1600E+02
  13.870  0.0000E+00  0.1600E+02
  13.880  0.0000E+00  0.1600E+02
  13.890  0.0000E+00  0.1600E+02
  13.900  0.0000E+00  0.1600E+02
  13.910  0.0000E+00  0.1600E+02
  13.920  0.0000E+00  0.1600E+02
  13.930  0.0000E+00  0.1600E+02
  13.940  0.0000E+00  0.1600E+02
  13.950  0.0000E+00  0.1600E+02
  13.960  0.0000E+00  0.1600E+02
  13.970  0.0000E+00  0.1600E+02
  13.980  0.0000E+00  0.1600E+02
  13.990  0.0000E+00  0.1600E+02
  14.000  0.0000E+00  0.1600E+02
  14.010  0.0000E+00  0.1600E+02
  14.020  0.0000E+00  0.1600E+02
  14.030  0.0000E+00  0.1600E+02
  14.040  0.0000E+00  0.1600E+02
  14.050  0.0000E+00  0.1600E+02
  14.060  0.0000E+00  0.1600E+02
  14.070  0.0000E+00  0.1600E+02
  14.080  0.0000E+00  0.1600E+02
  14.090  0.0000E+00  0.1600E+02
  14.100  0.0000E+00  0.1600E+02
  14.110  0.0000E+00  0.1600E+02
  14.120  0.0000E+00  0.1600E+02
  14.130  0.0000E+00  0.1600E+02
  14.140  0.0000E+00  0.1600E+02
  14.150  0.0000E+00  0.1600E+02
  14.160  0.0000E+00  0.1600E+02
  14.170  0.0000E+00  0.1600E+02
  14.180  0.0000E+00  0.1600E+02
  14.190  0.0000E+00  0.1600E+02
  14.200  0.0000E+00  0.1600E+02
  14.210  0.0000E+00  0.1600E+02
  14.220  0.0000E+00  0.1600E+02
  14.230  0.0000E+00  0.1600E+02
  14.240  0.0000E+00  0.1600E+02
  14.250  0.0000E+00  0.1600E+02
  14.260  0.0000E+00  0.1600E+02
  14.270  0.0000E+00  0.1600E+02
  14.280  0.0000E+00  0.1600E+02
  14.290  0.0000E+00  0.1600E+02
  14.300  0.0000E+00  0.1600E+02
  14.310  0.0000E+00  0.1600E+02
  14.320  0.0000E+00  0.1600E+02
  14.330  0.0000E+00  0.1600E+02
  14.340  0.0000E+00  0.1600E+02
  14.350  0.0000E+00  0.1600E+02
  14.360  0.0000E+00  0.1600E+02
  14.370  0.0000E+00  0.1600E+02
  14.380  0.0000E+00  0.1600E+02
  14.390  0.0000E+00  0.1600E+02
  14.400  0.0000E+00  0.1600E+02
  14.410  0.0000E+00  0.1600E+02
  14.420  0.0000E+00  0.1600E+02
  14.430  0.0000E+00  0.1600E+02
  14.440  0.0000E+00  0.1600E+02
  14.450  0.0000E+00  0.1600E+02
  14.460  0.0000E+00  0.1600E+02
  14.470  0.0000E+00  0.1600E+02
  14.480  0.0000E+00  0.1600E+02
  14.490  0.0000E+00  0.1600E+02
  14.500  0.0000E+00  0.1600E+02
  14.510  0.0000E+00  0.1600E+02
  14.520  0.0000E+00  0.1600E+02
  14.530  0.0000E+00  0.1600E+02
  14.540  0.0000E+00  0.1600E+02
  14.550  0.0000E+00  0.1600E+02
  14.560  0.0000E+00  0.1600E+02
  14.570  0.0000E+00  0.1600E+02
  14.580  0.0000E+00  0.1600E+02
  14.590  0.0000E+00  0.1600E+02
  14.600  0.0000E+00  0.1600E+02
  14.610  0.0000E+00  0.1600E+02
  14.620  0.0000E+00  0.1600E+02
  14.630  0.0000E+00  0.1600E+02
  14.640  0.0000E+00  0.1600E+02
  14.650  0.0000E+00  0.1600E+02
  14.660  0.0000E+00  0.1600E+02
  14.670  0.0000E+00  0.1600E+02
  14.680  0.0000E+00  0.1600E+02
  14.690  0.0000E+00  0.1600E+02
  14.700  0.0000E+00  0.1600E+02
  14.710  0.0000E+00  0.1600E+02
  14.720  0.0000E+00  0.1600E+02
  14.730  0.0000E+00  0.1600E+02
  14.740  0.0000E+00  0.1600E+02
  14.750  0.0000E+00  0.1600E+02
  14.760  0.0000E+00  0.1600E+02
  14.770  0.0000E+00  0.1600E+02
  14.780  0.0000E+00  0.1600E+02
  14.790  0.0000E+00  0.1600E+02
  14.800  0.0000E+00  0.1600E+02
  14.810  0.0000E+00  0.1600E+02
  14.820  0.0000E+00  0.1600E+02
  14.830  0.0000E+00  0.1600E+02
  14.840  0.0000E+00  0.1600E+02
  14.850  0.0000E+00  0.1600E+02
  14.860  0.0000E+00  0.1600E+02
  14.870  0.0000E+00  0.1600E+02
  14.880  0.0000E+00  0.1600E+02
  14.890  0.0000E+00  0.1600E+02
  14.900  0.0000E+00  0.1600E+02
  14.910  0.0000E+00  0.1600E+02
  14.920  0.0000E+00  0.1600E+02
  14.930  0.0000E+00  0.1600E+02
  14.940  0.0000E+00  0.1600E+02
  14.950  0.0000E+00  0.1600E+02
  14.960  0.0000E+00  0.1600E+02
  14.970  0.0000E+00  0.1600E+02
  14.980  0.0000E+00  0.1600E+02
  14.990  0.0000E+00  0.1600E+02
  15.000  0.0000E+00  0.1600E+02
